Data from Subt4__23__23.txt Node

Date: Fri Jun 07 14:39:21 CEST 2024
User: Naturwissenschaft
Spectrometer: FLMS00572
Trigger mode: 0
Integration Time (sec): 5,000000E-2
Scans to average: 20
Electric dark correction enabled: true
Nonlinearity correction enabled: false
Boxcar width: 5
XAxis mode: Wavelengths
Number of Pixels in Spectrum: 2048
>>>>>Begin Spectral Data<<<<<
190,164	-10,16
190,544	-9,46
190,925	-9,5
191,306	-7,66
191,687	-6,72
192,067	-7,55
192,448	-5,78
192,829	-5,05
193,209	-4,07
193,59	-5,42
193,97	-2,86
194,351	-1,43
194,731	0,95
195,112	1,62
195,492	0,31
195,872	1,09
196,253	2,77
196,633	3,15
197,013	3,54
197,393	3,63
197,773	5,23
198,154	3,3
198,534	2,9
198,914	0,47
199,294	0,88
199,674	0,2
200,054	-1,14
200,434	0,69
200,814	1,75
201,194	-0,91
201,573	-2,17
201,953	-2,35
202,333	-3,92
202,713	-5,2
203,092	-6,07
203,472	-6,87
203,852	-4,66
204,231	-3,96
204,611	-6,55
204,99	-10,19
205,37	-7,84
205,749	-4,38
206,129	-2,36
206,508	-0,15
206,887	1,44
207,267	1,1
207,646	2,58
208,025	2,27
208,405	1,16
208,784	1,33
209,163	4,27
209,542	5,37
209,921	2,3
210,3	2,26
210,679	3,8
211,058	2,83
211,437	6,99
211,816	7,68
212,195	6,21
212,574	8,75
212,952	9,05
213,331	7,11
213,71	7,69
214,089	8,39
214,467	7,23
214,846	6,85
215,225	6,6
215,603	3,29
215,982	3,03
216,36	5,08
216,739	3,57
217,117	5,19
217,495	4,74
217,874	2,41
218,252	1,12
218,63	1,15
219,009	-0,45
219,387	-1,86
219,765	-0,22
220,143	-2,3
220,521	-2,3
220,899	-3,47
221,277	-6,49
221,655	-5,3
222,033	-3,27
222,411	0,13
222,789	0,12
223,167	1,46
223,545	2,91
223,923	4,35
224,301	4,67
224,678	3,68
225,056	3,34
225,434	4,61
225,811	4,46
226,189	1,42
226,566	-1,21
226,944	1,09
227,321	0,25
227,699	0,68
228,076	-1,15
228,454	-0,36
228,831	0,04
229,208	2,83
229,586	1,19
229,963	2,51
230,34	5,47
230,717	7,72
231,094	5,34
231,471	5,01
231,848	4,21
232,225	2,24
232,602	3,34
232,979	3,79
233,356	0,24
233,733	1,21
234,11	-0,7
234,487	-1,48
234,864	-1,52
235,24	-1,37
235,617	-2,85
235,994	-1,67
236,37	0,2
236,747	1,86
237,124	0,72
237,5	0,91
237,877	1,43
238,253	2,93
238,63	4,79
239,006	4,54
239,382	5,92
239,759	7,95
240,135	7,67
240,511	9,12
240,887	6,79
241,264	9,2
241,64	10,85
242,016	10,62
242,392	9,71
242,768	8,51
243,144	8,21
243,52	6,43
243,896	6,59
244,272	7,87
244,648	7,22
245,023	7,33
245,399	5,17
245,775	5,73
246,151	7,11
246,526	7,21
246,902	6,68
247,278	2,99
247,653	2,28
248,029	2,6
248,404	1,3
248,78	0,63
249,155	-1,72
249,53	-2,26
249,906	-1,32
250,281	0,6
250,656	3,2
251,032	2,4
251,407	4,69
251,782	7,14
252,157	6,06
252,532	5,85
252,907	5,51
253,282	6,49
253,657	8,85
254,032	9,36
254,407	7,34
254,782	5,46
255,157	4,61
255,532	5,98
255,907	7,04
256,281	8,49
256,656	7,72
257,031	9,52
257,405	10,79
257,78	9,37
258,155	7,37
258,529	8,09
258,904	5,7
259,278	6,56
259,652	8,15
260,027	7
260,401	6,61
260,775	9,14
261,15	7,94
261,524	7,88
261,898	6,83
262,272	8,41
262,646	7,15
263,021	9,53
263,395	10,73
263,769	6,34
264,143	6,64
264,517	4,54
264,89	2,74
265,264	-0,8
265,638	-1,34
266,012	0,06
266,386	-3,05
266,76	-4,12
267,133	-3,31
267,507	-3,51
267,88	-1,94
268,254	-3,74
268,628	-2,44
269,001	-3,87
269,375	0,18
269,748	-1,08
270,121	-2,29
270,495	-0,13
270,868	0,1
271,241	-2,79
271,615	-4,02
271,988	-5,39
272,361	-6,23
272,734	-6
273,107	-2,52
273,48	-3,36
273,853	-2,47
274,226	-1,27
274,599	-1,4
274,972	0,21
275,345	2,37
275,718	3,74
276,091	5,58
276,464	7,66
276,836	7,68
277,209	6,38
277,582	5,63
277,954	8,6
278,327	8,3
278,7	10,14
279,072	9,29
279,445	8,92
279,817	7,93
280,189	7,98
280,562	7,67
280,934	7,97
281,306	7,61
281,679	9,59
282,051	8,22
282,423	7,75
282,795	7,39
283,167	7,73
283,539	7,47
283,911	7,03
284,283	6,94
284,655	8,8
285,027	8,65
285,399	9,03
285,771	9,55
286,143	7,51
286,515	8,73
286,886	7,15
287,258	7,09
287,63	7,52
288,001	8,24
288,373	8,65
288,745	5,54
289,116	5,2
289,488	4,19
289,859	0,92
290,23	0,36
290,602	-0,04
290,973	-1,75
291,344	-1,5
291,716	-1,54
292,087	-2,12
292,458	-1,21
292,829	-1,79
293,2	-2,58
293,571	-3,02
293,942	-2,87
294,313	-1,57
294,684	-0,57
295,055	2,21
295,426	2,31
295,797	3,72
296,168	4,96
296,539	3,39
296,909	7,02
297,28	7,99
297,651	7,82
298,021	10,91
298,392	10,88
298,763	8,5
299,133	7,3
299,503	6,11
299,874	3,94
300,244	2,66
300,615	2,31
300,985	-1,12
301,355	0,42
301,726	3,11
302,096	1,54
302,466	1,55
302,836	2,2
303,206	3,71
303,576	3,86
303,946	4,11
304,316	5,52
304,686	4,96
305,056	5,7
305,426	3,69
305,796	2,06
306,166	0,63
306,535	0,5
306,905	0,08
307,275	-2,53
307,644	-0,94
308,014	0,05
308,383	-1,75
308,753	-3,01
309,122	-0,94
309,492	-0,9
309,861	-0,09
310,231	2,1
310,6	1,85
310,969	2,6
311,339	5,74
311,708	5,12
312,077	2,32
312,446	3,92
312,815	5,11
313,184	3,72
313,553	4,08
313,922	4,77
314,291	4,53
314,66	6,56
315,029	5,17
315,398	3,67
315,767	2,67
316,136	4,55
316,504	4,13
316,873	6,65
317,242	7,01
317,61	6,16
317,979	5,84
318,347	5,22
318,716	2,17
319,084	3,68
319,453	1,58
319,821	2,34
320,189	2,85
320,558	2,85
320,926	1,51
321,294	1,09
321,662	1,63
322,031	1,53
322,399	2,9
322,767	5,54
323,135	5,69
323,503	9,97
323,871	10,01
324,239	9,35
324,607	8,71
324,974	10,96
325,342	12,36
325,71	11,95
326,078	12,16
326,445	11,73
326,813	11,89
327,181	10,96
327,548	8,49
327,916	7,61
328,283	5,32
328,651	6,4
329,018	2,88
329,385	2,05
329,753	2,34
330,12	1,27
330,487	1,1
330,855	1,64
331,222	-1,25
331,589	-2,03
331,956	-1,76
332,323	0,46
332,69	0,08
333,057	1,12
333,424	0,4
333,791	1,3
334,158	0,49
334,525	0,73
334,892	0,48
335,258	2,72
335,625	5,71
335,992	5,09
336,358	4,31
336,725	5,72
337,091	5,27
337,458	5,61
337,824	4,5
338,191	2,33
338,557	2,88
338,924	-0,25
339,29	0,51
339,656	-1,45
340,023	-1,13
340,389	-1,16
340,755	-3,46
341,121	-2,33
341,487	-1,25
341,853	-0,71
342,219	2,63
342,585	1,52
342,951	2,51
343,317	2,44
343,683	1,59
344,049	2,02
344,415	3,41
344,78	2,81
345,146	3,7
345,512	1,43
345,877	0,82
346,243	0,24
346,608	-0,33
346,974	0,06
347,339	2,15
347,705	3,23
348,07	2,13
348,436	2,99
348,801	3,94
349,166	1,75
349,531	4,8
349,897	6,51
350,262	6,77
350,627	4,42
350,992	4,98
351,357	3,18
351,722	1,92
352,087	4,58
352,452	2,47
352,817	2,91
353,181	4,87
353,546	1,54
353,911	-0,12
354,276	1,49
354,64	4,24
355,005	5,5
355,37	4,2
355,734	3,33
356,099	0,08
356,463	-0,13
356,828	-0,46
357,192	-2,03
357,556	-1
357,921	0,56
358,285	-0,92
358,649	-0,75
359,013	0,49
359,378	2,39
359,742	3,66
360,106	6,66
360,47	7,4
360,834	8,1
361,198	8,84
361,562	8,62
361,926	7,03
362,289	7,45
362,653	7,26
363,017	4,09
363,381	1,97
363,744	2,83
364,108	2,81
364,472	3,97
364,835	4,57
365,199	4,97
365,562	5,23
365,926	4,16
366,289	3,24
366,652	3,58
367,016	6,17
367,379	8,73
367,742	7,07
368,105	5,72
368,469	5,53
368,832	5,06
369,195	4,96
369,558	3,25
369,921	3,91
370,284	4,12
370,647	3,62
371,01	1,88
371,372	1,57
371,735	4,08
372,098	4,05
372,461	4,13
372,823	5,27
373,186	5,02
373,549	7,02
373,911	7,77
374,274	5,87
374,636	6,55
374,999	7,47
375,361	6,22
375,723	4,87
376,086	6,27
376,448	6
376,81	4,3
377,172	3,98
377,535	3,89
377,897	2,53
378,259	5,71
378,621	5,29
378,983	2,55
379,345	3,82
379,707	3,56
380,068	3,87
380,43	3,39
380,792	3,37
381,154	2,55
381,516	3,17
381,877	4
382,239	3,82
382,6	3,98
382,962	5,28
383,323	3,93
383,685	4,1
384,046	2,74
384,408	4,23
384,769	3,99
385,13	5
385,492	4,09
385,853	3,08
386,214	2,87
386,575	1,15
386,936	-0,76
387,297	-1,39
387,658	-1,74
388,019	0,47
388,38	0,34
388,741	1,31
389,102	1,33
389,463	2,05
389,823	2,81
390,184	1,92
390,545	2,54
390,906	4,19
391,266	7,08
391,627	7,46
391,987	7,32
392,348	6,65
392,708	7,83
393,069	8,92
393,429	6,82
393,789	8,4
394,15	9,36
394,51	10,65
394,87	11,69
395,23	8,95
395,59	8,14
395,95	5,34
396,31	5,25
396,67	3,72
397,03	5,25
397,39	9,67
397,75	9,97
398,11	7,14
398,47	6,91
398,829	7,09
399,189	7,11
399,549	9,79
399,908	11,84
400,268	10,42
400,627	8,52
400,987	5,28
401,346	2,05
401,706	5,8
402,065	11,6
402,424	23,06
402,784	55,36
403,143	145,11
403,502	323,72
403,861	543,75
404,221	705,1
404,58	808,19
404,939	867,78
405,298	897,68
405,657	903,78
406,015	903,91
406,374	895,31
406,733	863,43
407,092	774,93
407,451	594,81
407,809	372,47
408,168	211,87
408,527	112,32
408,885	53,4
409,244	24,32
409,602	13,55
409,961	9,85
410,319	6,98
410,678	5,42
411,036	5,28
411,394	4,64
411,752	5,32
412,111	7,53
412,469	3,63
412,827	5,53
413,185	7,55
413,543	7,98
413,901	8,35
414,259	9,67
414,617	12,32
414,975	12,34
415,333	13,09
415,69	12,33
416,048	11,32
416,406	13,92
416,763	13,45
417,121	12,05
417,479	13,21
417,836	12,86
418,194	14,82
418,551	13,46
418,909	14,09
419,266	15,29
419,623	18,8
419,981	19,81
420,338	20,64
420,695	21,89
421,052	22,92
421,409	21,46
421,766	22,91
422,123	18,86
422,48	20,33
422,837	20,21
423,194	19,48
423,551	17,79
423,908	16,54
424,265	16,51
424,621	14,69
424,978	14,01
425,335	16,83
425,691	15,53
426,048	19,25
426,404	20,17
426,761	21,9
427,117	23,34
427,474	23,85
427,83	21,99
428,186	21,34
428,543	21,77
428,899	21,02
429,255	19,58
429,611	23,25
429,967	23,91
430,323	23,28
430,679	22,34
431,035	22,41
431,391	23,21
431,747	27,97
432,103	30,39
432,459	31,18
432,815	33,78
433,17	34,63
433,526	32,23
433,882	30,39
434,237	29,82
434,593	32,32
434,948	31,98
435,304	32,6
435,659	30,73
436,014	28,09
436,37	31,53
436,725	29,91
437,08	31,66
437,436	33,58
437,791	32,94
438,146	32,56
438,501	30,19
438,856	29,76
439,211	30,76
439,566	30,57
439,921	33,65
440,276	32
440,63	33,93
440,985	33,31
441,34	31,76
441,695	34,47
442,049	35,96
442,404	36,89
442,758	38,87
443,113	40,75
443,467	42,82
443,822	42,29
444,176	41,95
444,531	42,58
444,885	41,75
445,239	44,19
445,593	42,25
445,948	42,51
446,302	42,3
446,656	43,07
447,01	43,19
447,364	44,19
447,718	45,06
448,072	44,92
448,426	46,7
448,779	48,39
449,133	48,54
449,487	51,15
449,841	51,74
450,194	52,92
450,548	52,7
450,902	51,98
451,255	51,41
451,609	51,94
451,962	53,38
452,315	51,98
452,669	52,39
453,022	52,48
453,375	52,2
453,729	49,67
454,082	51,66
454,435	51,36
454,788	50,05
455,141	48,73
455,494	49,26
455,847	48,88
456,2	51,57
456,553	52,11
456,906	51,16
457,258	50,99
457,611	53,25
457,964	52,15
458,316	53,33
458,669	55,53
459,022	56,4
459,374	54,51
459,727	56,93
460,079	52,82
460,432	52,01
460,784	54,83
461,136	54,83
461,488	55,44
461,841	55,29
462,193	57,19
462,545	58,25
462,897	61,42
463,249	65,45
463,601	63,37
463,953	66,57
464,305	68,52
464,657	65,21
465,009	66,64
465,361	67,68
465,712	70,04
466,064	70,34
466,416	69,31
466,767	67,56
467,119	65,43
467,47	66,73
467,822	65,41
468,173	64,29
468,525	68,58
468,876	69,88
469,227	70,17
469,579	70,58
469,93	69,88
470,281	68,68
470,632	70,49
470,983	70,7
471,334	69,96
471,685	70,76
472,036	71,77
472,387	70
472,738	68,21
473,089	68,22
473,44	65,55
473,79	64,13
474,141	65,13
474,492	63,77
474,842	64,75
475,193	65,4
475,543	65,78
475,894	68,08
476,244	71,13
476,595	71,28
476,945	74,54
477,295	77,7
477,645	77,95
477,996	82,11
478,346	83,69
478,696	84,45
479,046	85,5
479,396	88,15
479,746	87,36
480,096	85,09
480,446	89,04
480,796	88,87
481,145	92,08
481,495	94,66
481,845	92,76
482,195	92,88
482,544	95,8
482,894	98,83
483,243	97,79
483,593	98,49
483,942	101,16
484,292	101,28
484,641	102,05
484,99	99,54
485,34	102,46
485,689	104,85
486,038	108,94
486,387	109,58
486,736	108,88
487,085	112,97
487,434	115
487,783	117,7
488,132	121,23
488,481	124,3
488,83	127,64
489,179	128,98
489,527	132,56
489,876	134,48
490,225	137,11
490,573	139,16
490,922	142,64
491,27	146,88
491,619	149,91
491,967	152,42
492,316	154,61
492,664	160,64
493,012	165,74
493,361	166,17
493,709	168,88
494,057	173,94
494,405	182
494,753	187,08
495,101	192,75
495,449	198,72
495,797	207,4
496,145	217,7
496,493	227,39
496,84	236,69
497,188	250,41
497,536	265,16
497,884	277,77
498,231	291,86
498,579	307,47
498,926	324,38
499,274	341,99
499,621	358,22
499,969	375,82
500,316	396,41
500,663	419,85
501,01	444,57
501,358	470,89
501,705	498,25
502,052	526,27
502,399	559,68
502,746	595,42
503,093	631,61
503,44	674,67
503,787	720,68
504,134	768,79
504,481	816,63
504,827	872,34
505,174	928,22
505,521	994,37
505,867	1061,8
506,214	1132,37
506,56	1208,5
506,907	1289,58
507,253	1371,84
507,6	1460,14
507,946	1551,24
508,292	1650,68
508,639	1752,34
508,985	1858,43
509,331	1969,46
509,677	2089,53
510,023	2210,73
510,369	2337,39
510,715	2473,55
511,061	2612,6
511,407	2756,91
511,753	2906,37
512,099	3056,54
512,444	3208,76
512,79	3367,24
513,136	3525,98
513,481	3683,65
513,827	3843,65
514,172	4001,31
514,518	4158,92
514,863	4318,5
515,209	4475,07
515,554	4625,63
515,899	4774,89
516,245	4916,82
516,59	5050,48
516,935	5179,64
517,28	5300,97
517,625	5412,92
517,97	5520,38
518,315	5607,44
518,66	5686,37
519,005	5751,02
519,35	5804,59
519,695	5850,02
520,039	5882,16
520,384	5907,37
520,729	5915,67
521,073	5915,04
521,418	5902,18
521,762	5871,84
522,107	5843,11
522,451	5796,45
522,796	5739,48
523,14	5681,64
523,484	5612,74
523,829	5538,84
524,173	5459,19
524,517	5374,48
524,861	5284,2
525,205	5191,02
525,549	5099,17
525,893	5000,8
526,237	4903,32
526,581	4808,57
526,925	4711,64
527,269	4614,26
527,612	4518,97
527,956	4425,64
528,3	4333,02
528,643	4238,72
528,987	4151,78
529,33	4066,22
529,674	3982,9
530,017	3904,06
530,36	3831,99
530,704	3752,41
531,047	3677,83
531,39	3607,6
531,733	3538,11
532,077	3469,41
532,42	3409,36
532,763	3344,81
533,106	3283,05
533,449	3224,59
533,792	3167,63
534,134	3107,2
534,477	3057,66
534,82	3007,98
535,163	2958,99
535,505	2907,13
535,848	2859,64
536,191	2812,48
536,533	2769,28
536,876	2731,32
537,218	2690,78
537,56	2651,94
537,903	2615,83
538,245	2578,84
538,587	2544,97
538,93	2510,41
539,272	2478,94
539,614	2449,47
539,956	2418,59
540,298	2389,43
540,64	2355,95
540,982	2329,52
541,324	2301,36
541,666	2272,99
542,007	2245,2
542,349	2218,41
542,691	2196,06
543,032	2173,75
543,374	2153,67
543,716	2133
544,057	2115,06
544,398	2099,1
544,74	2079,01
545,081	2063,63
545,423	2049,3
545,764	2034,69
546,105	2022,62
546,446	2007,91
546,787	1995,31
547,128	1984,58
547,469	1974,66
547,81	1964,64
548,151	1957,66
548,492	1951,16
548,833	1945,52
549,174	1943,65
549,515	1941,08
549,855	1936,29
550,196	1933,22
550,537	1933,54
550,877	1929,57
551,218	1928,54
551,558	1926,36
551,899	1923,37
552,239	1922,4
552,579	1919,13
552,92	1913,92
553,26	1910,74
553,6	1907,89
553,94	1907,36
554,28	1903,65
554,62	1902,78
554,96	1904,3
555,3	1903,86
555,64	1902,54
555,98	1902,38
556,32	1902,2
556,66	1901,37
556,999	1903,13
557,339	1903,61
557,679	1903,56
558,018	1905,37
558,358	1907,16
558,697	1907,9
559,037	1914,29
559,376	1920,3
559,715	1926,95
560,055	1935,71
560,394	1942,74
560,733	1953,1
561,072	1963,5
561,411	1978,39
561,75	1992,96
562,089	2011,16
562,428	2028,17
562,767	2048,18
563,106	2066,75
563,445	2087,21
563,784	2109,37
564,122	2140,19
564,461	2168,65
564,8	2205,99
565,138	2241,26
565,477	2280,47
565,815	2321,5
566,154	2367,5
566,492	2413,69
566,83	2467,74
567,169	2523,96
567,507	2590,48
567,845	2656,15
568,183	2730,38
568,521	2803,1
568,859	2883,54
569,197	2966,91
569,535	3056,31
569,873	3151,1
570,211	3251,8
570,549	3359,04
570,887	3470,36
571,224	3580,7
571,562	3703,12
571,9	3825,25
572,237	3951,39
572,575	4083,81
572,912	4223,17
573,25	4359,92
573,587	4503,37
573,924	4649,57
574,262	4800,01
574,599	4954,84
574,936	5113,95
575,273	5267,17
575,61	5430,85
575,947	5595,56
576,284	5755,17
576,621	5912,1
576,958	6071,07
577,295	6229,58
577,632	6384,25
577,969	6533,8
578,305	6677,71
578,642	6811,23
578,979	6951,57
579,315	7074,65
579,652	7192,66
579,988	7303,74
580,325	7412,85
580,661	7512,17
580,997	7595,47
581,334	7669,8
581,67	7732,16
582,006	7780,21
582,342	7830,29
582,678	7850,84
583,014	7861,87
583,35	7869,67
583,686	7862,21
584,022	7834,58
584,358	7803,34
584,694	7764,08
585,029	7709,83
585,365	7651,91
585,701	7585,44
586,036	7499,7
586,372	7412,22
586,707	7326,94
587,043	7222,68
587,378	7113,7
587,714	7009,02
588,049	6888,32
588,384	6767,69
588,719	6649,4
589,054	6519,76
589,39	6391,56
589,725	6268,24
590,06	6138,12
590,395	6003,78
590,729	5874,08
591,064	5749,42
591,399	5616,8
591,734	5488,54
592,069	5355,51
592,403	5226,85
592,738	5101,83
593,073	4979,22
593,407	4858,19
593,742	4743,61
594,076	4627,25
594,41	4513,49
594,745	4403,92
595,079	4294,79
595,413	4194,98
595,747	4096,79
596,081	3997,75
596,416	3901,67
596,75	3807,94
597,084	3712,17
597,418	3627,82
597,751	3542,22
598,085	3461,92
598,419	3380,73
598,753	3306,66
599,086	3232,65
599,42	3161,47
599,754	3094,86
600,087	3026,64
600,421	2965,95
600,754	2907,27
601,088	2845,01
601,421	2793,31
601,754	2738,33
602,088	2684,36
602,421	2633,68
602,754	2583,5
603,087	2538,47
603,42	2492,54
603,753	2452,06
604,086	2411,07
604,419	2370,01
604,752	2335,57
605,085	2295,8
605,417	2260,27
605,75	2225,98
606,083	2192
606,415	2159,9
606,748	2129,54
607,08	2097,91
607,413	2071,43
607,745	2041,57
608,078	2016,61
608,41	1985,12
608,742	1959,36
609,074	1933,08
609,407	1908,07
609,739	1885,24
610,071	1863,31
610,403	1839,49
610,735	1821,35
611,067	1800,5
611,399	1784,48
611,73	1766,57
612,062	1753,65
612,394	1734,93
612,726	1722,74
613,057	1715,76
613,389	1700,76
613,72	1689,06
614,052	1679,29
614,383	1666,94
614,715	1654,53
615,046	1643,83
615,377	1634,94
615,708	1623,79
616,04	1620,5
616,371	1611,97
616,702	1601,36
617,033	1598,65
617,364	1592,94
617,695	1588,35
618,026	1585,97
618,356	1585,69
618,687	1587,22
619,018	1588,53
619,349	1591,5
619,679	1588,31
620,01	1589,64
620,34	1591,74
620,671	1592,68
621,001	1592,49
621,332	1593,49
621,662	1594,71
621,992	1594,68
622,322	1591,88
622,653	1591,91
622,983	1593,29
623,313	1599,48
623,643	1602,34
623,973	1605,44
624,303	1609,64
624,633	1614,62
624,962	1618,64
625,292	1620,18
625,622	1623,02
625,952	1624,09
626,281	1627,89
626,611	1628,94
626,94	1629,66
627,27	1630,6
627,599	1627,05
627,929	1626,32
628,258	1627,35
628,587	1630,25
628,916	1632,08
629,246	1636,34
629,575	1640,69
629,904	1638,08
630,233	1638,74
630,562	1639,02
630,891	1637,67
631,22	1640,26
631,548	1637,25
631,877	1636,72
632,206	1632,47
632,535	1628,83
632,863	1624,62
633,192	1620,12
633,52	1615,52
633,849	1610,32
634,177	1602,81
634,506	1597,19
634,834	1589,57
635,162	1585,2
635,49	1576,15
635,819	1566,7
636,147	1558,51
636,475	1545,73
636,803	1534,99
637,131	1523,91
637,459	1509,2
637,787	1495,5
638,114	1481,52
638,442	1465,1
638,77	1449,99
639,098	1435,25
639,425	1420,29
639,753	1401,58
640,08	1385,9
640,408	1369,82
640,735	1352,86
641,062	1335,12
641,39	1317,35
641,717	1298,88
642,044	1280,61
642,371	1263,01
642,699	1241,15
643,026	1219,71
643,353	1201,99
643,68	1181,98
644,006	1158,35
644,333	1134,43
644,66	1113,79
644,987	1092,56
645,314	1074,67
645,64	1053,09
645,967	1031,99
646,293	1010,74
646,62	990,8
646,946	969,38
647,273	949,03
647,599	932,5
647,925	915,21
648,252	897,79
648,578	878,18
648,904	857,19
649,23	841,92
649,556	823,89
649,882	808,1
650,208	793,17
650,534	776,94
650,86	761,87
651,185	743,75
651,511	729,69
651,837	713,9
652,162	704,47
652,488	690,28
652,814	675,86
653,139	661,59
653,464	651,02
653,79	636,43
654,115	625,7
654,44	613,4
654,766	599,85
655,091	585,51
655,416	574,34
655,741	556,9
656,066	544,76
656,391	536,3
656,716	526,38
657,041	514,22
657,366	502,95
657,69	492,15
658,015	483,35
658,34	477,68
658,664	470,85
658,989	463,35
659,313	457,41
659,638	447,75
659,962	439,16
660,286	428,48
660,611	420,13
660,935	414,78
661,259	405,84
661,583	397,75
661,907	389,94
662,231	379,95
662,555	372,33
662,879	365,52
663,203	361,15
663,527	353,77
663,851	350,6
664,175	345,63
664,498	339,95
664,822	334,98
665,145	329,28
665,469	323,7
665,792	322,84
666,116	318,13
666,439	314,29
666,763	309,33
667,086	304,71
667,409	297,56
667,732	292,04
668,055	288,56
668,378	288,48
668,701	283,84
669,024	280,45
669,347	276,15
669,67	272,88
669,993	267,97
670,316	264,43
670,638	260,52
670,961	257,6
671,283	256,32
671,606	254,02
671,928	248
672,251	243,53
672,573	241,45
672,896	238,76
673,218	236,53
673,54	236,55
673,862	235,02
674,184	233,67
674,506	232,1
674,828	228,03
675,15	224,18
675,472	221,15
675,794	219,53
676,116	214,64
676,438	209,11
676,759	205,33
677,081	201,84
677,403	200,53
677,724	196,18
678,046	194,57
678,367	191,2
678,689	187,41
679,01	186,03
679,331	185,6
679,652	186,16
679,974	188,28
680,295	187,28
680,616	183,93
680,937	182,69
681,258	184,19
681,579	184,98
681,9	184,52
682,22	182,32
682,541	181,56
682,862	178,01
683,183	177,57
683,503	172,49
683,824	172,12
684,144	172,33
684,465	171,86
684,785	169,12
685,105	166,2
685,426	166,84
685,746	167,31
686,066	167,36
686,386	167,74
686,706	163,91
687,026	164,71
687,346	162,55
687,666	160,01
687,986	157,13
688,306	157,43
688,626	155,02
688,945	152,05
689,265	151,04
689,585	149,33
689,904	148,65
690,224	147,14
690,543	145,96
690,862	144,24
691,182	143,41
691,501	139,64
691,82	137,71
692,139	134,16
692,459	131,16
692,778	130,16
693,097	125,98
693,416	124,61
693,735	126,36
694,053	125,11
694,372	124,69
694,691	125,18
695,01	126,71
695,328	123,21
695,647	125,58
695,966	128,93
696,284	125,71
696,602	126,68
696,921	124,89
697,239	120,6
697,557	118,82
697,876	113,87
698,194	108,69
698,512	107,31
698,83	107,5
699,148	104,65
699,466	100,7
699,784	100,57
700,102	96,71
700,42	96,05
700,737	95,01
701,055	94,31
701,373	96,08
701,69	96,48
702,008	90,69
702,325	88,06
702,643	87,44
702,96	85,94
703,277	83,48
703,595	84,55
703,912	84,58
704,229	82,07
704,546	82,33
704,863	79,1
705,18	79,25
705,497	82,95
705,814	81,24
706,131	78,88
706,448	76,95
706,764	78,24
707,081	76,78
707,398	74,29
707,714	74,38
708,031	70,86
708,347	71,3
708,664	70,15
708,98	66,52
709,296	66,44
709,613	65,1
709,929	66,44
710,245	64,83
710,561	63,48
710,877	62,83
711,193	61,09
711,509	60,24
711,825	59,27
712,141	59,01
712,457	58,18
712,772	58,31
713,088	57,28
713,403	55,22
713,719	54,47
714,035	52,71
714,35	50,16
714,665	49,93
714,981	49,01
715,296	46,54
715,611	46,41
715,926	46,14
716,242	44,85
716,557	46,27
716,872	47,12
717,187	45,71
717,502	43,28
717,816	43,37
718,131	45
718,446	45,31
718,761	47,15
719,075	45,81
719,39	47,07
719,704	46,7
720,019	44,71
720,333	42,45
720,648	41,39
720,962	42,89
721,276	39,55
721,59	35,06
721,905	32,26
722,219	32,19
722,533	30,19
722,847	26,52
723,161	25,09
723,475	22,38
723,788	21,2
724,102	18,75
724,416	17,88
724,73	19,67
725,043	22
725,357	23,07
725,67	20,54
725,984	21,04
726,297	23,34
726,61	22,95
726,924	23,6
727,237	22,09
727,55	21,81
727,863	21,14
728,176	21,12
728,489	19,76
728,802	20,06
729,115	20,04
729,428	19,27
729,741	16,93
730,054	16,09
730,366	17,18
730,679	18,31
730,992	21,94
731,304	22,85
731,617	22,18
731,929	21,94
732,241	19,89
732,554	20,97
732,866	19,58
733,178	19,48
733,49	20,55
733,802	20,91
734,114	20,08
734,426	19,12
734,738	18,01
735,05	19,01
735,362	18,01
735,674	18,9
735,985	17,09
736,297	19,18
736,609	19,65
736,92	19,79
737,232	19,18
737,543	19,29
737,854	18,26
738,166	16,3
738,477	15,74
738,788	14,8
739,099	15,27
739,411	14,6
739,722	12,11
740,033	13,35
740,344	11,2
740,654	9,23
740,965	10,97
741,276	8,28
741,587	9,03
741,897	9,78
742,208	9,98
742,519	1,62
742,829	3,63
743,14	2,55
743,45	-0,32
743,76	-2,37
744,071	-3,47
744,381	-5,53
744,691	-3,8
745,001	-0,92
745,311	-2,76
745,621	-0,89
745,931	6,07
746,241	4,02
746,551	4,61
746,861	5,4
747,17	6,88
747,48	9,23
747,79	9,95
748,099	12,63
748,409	9,33
748,718	11,23
749,027	9,84
749,337	10,41
749,646	8,61
749,955	8,72
750,265	8,83
750,574	8,78
750,883	9,11
751,192	10,49
751,501	7,41
751,81	11,02
752,118	8,52
752,427	6,11
752,736	6,68
753,045	8,7
753,353	6,99
753,662	6,87
753,97	6,85
754,279	5,61
754,587	4,85
754,896	6,62
755,204	3,16
755,512	3,7
755,82	8,54
756,128	8,31
756,436	9,32
756,744	11,88
757,052	12,45
757,36	13,24
757,668	12,94
757,976	13,9
758,284	13,48
758,591	13,46
758,899	14,03
759,207	10,45
759,514	10,82
759,821	6,97
760,129	5,44
760,436	3,45
760,744	2,77
761,051	2,63
761,358	-0,26
761,665	-1,37
761,972	-0,12
762,279	-0,78
762,586	1,74
762,893	-0,46
763,2	1,17
763,507	2,73
763,813	4,29
764,12	2,31
764,427	3,44
764,733	1,75
765,04	1,2
765,346	0,48
765,653	0,79
765,959	-0,32
766,265	-0,65
766,571	1,01
766,878	0,59
767,184	-0,62
767,49	3,06
767,796	1,9
768,102	4,36
768,408	5,73
768,713	6,89
769,019	6,87
769,325	4,85
769,631	4,95
769,936	3,07
770,242	3,59
770,547	5,82
770,853	6,14
771,158	6,48
771,463	7,3
771,769	5,17
772,074	3,99
772,379	3,16
772,684	3,31
772,989	4,23
773,294	4,19
773,599	1,21
773,904	-1,42
774,209	-3,23
774,514	-4,87
774,818	-8,19
775,123	-7,38
775,428	-8,32
775,732	-8,8
776,037	-8,85
776,341	-8,77
776,645	-7,91
776,95	-6,56
777,254	-4,98
777,558	-3,56
777,862	-1,79
778,166	0,59
778,47	1,49
778,774	2,86
779,078	4,04
779,382	5,33
779,686	6,39
779,99	6,98
780,293	6,38
780,597	8,44
780,901	6,64
781,204	5,96
781,508	6,61
781,811	6,7
782,114	6,09
782,418	4,57
782,721	5,25
783,024	4,58
783,327	2,67
783,63	5,36
783,933	3,2
784,236	4,21
784,539	4,63
784,842	1,53
785,145	2,99
785,447	3,24
785,75	2,19
786,053	3,35
786,355	0,81
786,658	1,49
786,96	0,93
787,263	-1,04
787,565	-0,88
787,867	-1,99
788,169	0,02
788,472	-2,01
788,774	-2,3
789,076	-1,65
789,378	-4,4
789,68	-1,76
789,982	-2,52
790,283	-3,96
790,585	-1,91
790,887	-1,3
791,188	-0,18
791,49	-1,51
791,792	-2,74
792,093	-1,99
792,394	-1,31
792,696	-0,2
792,997	-2,94
793,298	-1,72
793,6	2,1
793,901	0,37
794,202	-0,33
794,503	-0,19
794,804	0,04
795,105	2,26
795,405	1,23
795,706	1,73
796,007	2,62
796,308	4,37
796,608	5,96
796,909	-0,51
797,209	1,08
797,51	-0,04
797,81	-1,42
798,11	-1,76
798,411	-1,3
798,711	-0,76
799,011	-2,12
799,311	-3,47
799,611	-2,04
799,911	-5,05
800,211	-4,36
800,511	-3,18
800,811	-0,98
801,111	0,04
801,41	-0,2
801,71	-2,85
802,009	-2,53
802,309	-1,63
802,608	-2,44
802,908	-2,69
803,207	0,15
803,507	4,74
803,806	1,77
804,105	1,32
804,404	1,25
804,703	3,69
805,002	5,16
805,301	5,14
805,6	7,4
805,899	8,41
806,198	9
806,496	9,85
806,795	9,34
807,094	10,56
807,392	10,02
807,691	10,79
807,989	9,17
808,287	9,84
808,586	10,27
808,884	7,57
809,182	7,73
809,48	5,77
809,778	3,07
810,076	1,99
810,374	2,42
810,672	0,85
810,97	1,85
811,268	2,09
811,566	-0,27
811,863	-1,93
812,161	-1,53
812,458	-2,44
812,756	-1,82
813,053	-0,58
813,351	-0,78
813,648	-1,82
813,945	-2,26
814,242	-2,94
814,54	-2,1
814,837	-2,38
815,134	0,66
815,431	2,17
815,728	0,67
816,025	0,93
816,321	-1,11
816,618	-0,76
816,915	-2,08
817,211	0,07
817,508	-1,01
817,804	-2,63
818,101	0,15
818,397	-2,26
818,694	-3,8
818,99	-2,38
819,286	-3,27
819,582	-2,21
819,878	-1,94
820,174	1,21
820,47	0,52
820,766	1,94
821,062	2,4
821,358	0,31
821,654	-1,04
821,949	0,82
822,245	1,56
822,541	1,59
822,836	1,33
823,132	1,42
823,427	-0,26
823,722	-1,52
824,018	-1,89
824,313	-1,44
824,608	-0,48
824,903	0,89
825,198	-2,01
825,493	-3,88
825,788	-4,33
826,083	-4,4
826,378	-6,71
826,672	-4,97
826,967	-4,49
827,262	-6,48
827,556	-6,96
827,851	-7,7
828,145	-7,77
828,44	-7,14
828,734	-4,25
829,028	-3,26
829,323	-1,86
829,617	-0,24
829,911	1,98
830,205	3,52
830,499	7,1
830,793	7,11
831,087	6,02
831,381	6,92
831,674	8,56
831,968	9,88
832,262	9,8
832,555	8,27
832,849	8,99
833,142	3,28
833,436	2,62
833,729	0,69
834,022	0,59
834,315	1,88
834,609	0,4
834,902	-0,83
835,195	-3,1
835,488	-4,54
835,781	-5,05
836,074	-5,7
836,366	-5,2
836,659	-6,23
836,952	-7,72
837,244	-7,23
837,537	-7,27
837,829	-5,61
838,122	-5,07
838,414	-5,43
838,707	-3,04
838,999	-1,55
839,291	-1,01
839,583	0,23
839,875	1,36
840,167	2,07
840,459	0,13
840,751	0,38
841,043	-1,11
841,335	-1,69
841,627	-1,63
841,918	-2,35
842,21	-2,68
842,502	-3,91
842,793	-4,62
843,085	-5,27
843,376	-3,94
843,667	0,19
843,959	-0,54
844,25	0,18
844,541	1,67
844,832	0,48
845,123	-1,72
845,414	2,3
845,705	0,91
845,996	1,1
846,287	1,12
846,577	-1,3
846,868	-3,77
847,159	-3,75
847,449	-3,74
847,74	-4,96
848,03	-3,69
848,32	-1,93
848,611	-7,21
848,901	-5,64
849,191	-3,69
849,481	-3,19
849,771	-1,36
850,061	-0,32
850,351	1,59
850,641	0,83
850,931	0,55
851,221	0,48
851,511	0,68
851,8	1,62
852,09	0,47
852,379	-0,22
852,669	-0,79
852,958	-2,17
853,248	-3,02
853,537	-3,33
853,826	-2,84
854,115	-1,66
854,404	-1,61
854,693	-1,82
854,982	-1,35
855,271	-2,11
855,56	-5,04
855,849	-4,31
856,138	-1,62
856,427	-3,6
856,715	-2,48
857,004	-3,39
857,292	-3,82
857,581	-4,87
857,869	-5,5
858,157	-6,28
858,446	-4,63
858,734	-2,75
859,022	-2,79
859,31	-3,39
859,598	-1,31
859,886	-4,6
860,174	-3,46
860,462	-2,78
860,75	-0,73
861,037	-1,32
861,325	-0,4
861,613	-0,38
861,9	1,32
862,188	0,83
862,475	1,73
862,763	2,82
863,05	4,83
863,337	4,57
863,624	3,83
863,911	1,92
864,199	1,64
864,486	2,63
864,772	3,66
865,059	3,43
865,346	3,14
865,633	1,83
865,92	-0,02
866,206	-1,68
866,493	-1,55
866,779	-4,63
867,066	-4,55
867,352	-3,91
867,639	-5,2
867,925	-4,99
868,211	-5,11
868,497	-4,82
868,783	-4,87
869,069	-3,8
869,355	-3,27
869,641	-3,45
869,927	-1,93
870,213	1,06
870,499	1,12
870,784	0,18
871,07	1,04
871,356	1,21
871,641	0,66
871,926	-0,8
872,212	-2,54
872,497	-3,06
872,782	-2,17
873,068	1,36
873,353	0,13
873,638	0,57
873,923	2,62
874,208	1,27
874,493	-0,13
874,777	1,62
875,062	0,87
875,347	1,17
875,632	2,16
875,916	1,64
876,201	0,28
876,485	1,17
876,77	2,4
877,054	3,45
877,338	2,05
877,622	1,14
877,906	0,67
878,191	2,93
878,475	4,85
878,759	5,17
879,042	5,49
879,326	5,47
879,61	3,57
879,894	2,75
