Data from Subt4__58__58.txt Node

Date: Fri Jun 07 14:39:56 CEST 2024
User: Naturwissenschaft
Spectrometer: FLMS00572
Trigger mode: 0
Integration Time (sec): 5,000000E-2
Scans to average: 20
Electric dark correction enabled: true
Nonlinearity correction enabled: false
Boxcar width: 5
XAxis mode: Wavelengths
Number of Pixels in Spectrum: 2048
>>>>>Begin Spectral Data<<<<<
190,164	-7,2
190,544	-4,96
190,925	-3,56
191,306	-2,61
191,687	-2,51
192,067	-3,86
192,448	-2,62
192,829	-2
193,209	-3,47
193,59	-3,31
193,97	-2,33
194,351	-3,27
194,731	-2,72
195,112	-3,23
195,492	-2,8
195,872	-2,71
196,253	-2,05
196,633	-1,59
197,013	0,3
197,393	1,84
197,773	2,88
198,154	1,53
198,534	0,36
198,914	-1,97
199,294	-2,93
199,674	-4,31
200,054	-3,8
200,434	-3,39
200,814	-2,36
201,194	-3,94
201,573	-4,94
201,953	-6,69
202,333	-7,21
202,713	-8,3
203,092	-8,84
203,472	-8,49
203,852	-5,73
204,231	-4,78
204,611	-5,89
204,99	-7,74
205,37	-9,33
205,749	-6,21
206,129	-2,19
206,508	1,11
206,887	2,86
207,267	2,58
207,646	3,13
208,025	0,95
208,405	-0,84
208,784	-0,62
209,163	-0,39
209,542	2,83
209,921	0,02
210,3	-0,06
210,679	0,08
211,058	-0,46
211,437	4,04
211,816	4,78
212,195	5,21
212,574	5,77
212,952	7,45
213,331	7,34
213,71	6,04
214,089	7,29
214,467	6,34
214,846	5,09
215,225	4,91
215,603	0,04
215,982	-0,44
216,36	-1,36
216,739	-2,74
217,117	-2,81
217,495	-2,61
217,874	-4,32
218,252	-5,21
218,63	-5,32
219,009	-6,97
219,387	-6,73
219,765	-4,84
220,143	-5,1
220,521	-3,69
220,899	-4,61
221,277	-5,9
221,655	-6,44
222,033	-6,21
222,411	-2,73
222,789	-3,97
223,167	-1,82
223,545	-2,22
223,923	0,12
224,301	0,84
224,678	0,12
225,056	2,6
225,434	3,2
225,811	3,34
226,189	2,43
226,566	-1,18
226,944	0,92
227,321	-0,69
227,699	-0,94
228,076	-4,18
228,454	-3,94
228,831	-5,11
229,208	-4,58
229,586	-6,21
229,963	-6,7
230,34	-6,24
230,717	-4,74
231,094	-7,91
231,471	-8,32
231,848	-9,21
232,225	-8,46
232,602	-8,98
232,979	-9,85
233,356	-11,8
233,733	-9,74
234,11	-8,3
234,487	-7,12
234,864	-8,49
235,24	-6,44
235,617	-5,47
235,994	-4,39
236,37	-2,96
236,747	-3,22
237,124	-1,02
237,5	-2,2
237,877	-3,11
238,253	-3,85
238,63	-4,13
239,006	-1,65
239,382	-1,83
239,759	-2,14
240,135	-2,71
240,511	-3,67
240,887	-5,36
241,264	-4,31
241,64	-3,88
242,016	-3,06
242,392	-2,99
242,768	-3,16
243,144	-5,11
243,52	-5,73
243,896	-6,32
244,272	-2,39
244,648	-3,35
245,023	-1,46
245,399	-1,8
245,775	-0,15
246,151	0,15
246,526	0,15
246,902	0,91
247,278	-0,71
247,653	-0,68
248,029	2,85
248,404	1,52
248,78	2,81
249,155	1,01
249,53	-0,61
249,906	0,45
250,281	0,37
250,656	2,35
251,032	2,74
251,407	5,53
251,782	5,83
252,157	3,39
252,532	3,45
252,907	3,06
253,282	3,3
253,657	4,48
254,032	5,07
254,407	6,02
254,782	4,33
255,157	2,97
255,532	1,96
255,907	3,07
256,281	3,9
256,656	3,11
257,031	4,21
257,405	4,33
257,78	4,51
258,155	2,27
258,529	2,53
258,904	1,64
259,278	2,49
259,652	2
260,027	2,01
260,401	0,82
260,775	2,76
261,15	1,86
261,524	3,68
261,898	1,91
262,272	3,06
262,646	-0,2
263,021	0,17
263,395	0,46
263,769	-1,51
264,143	-0,07
264,517	0,24
264,89	-2,15
265,264	-5,29
265,638	-4,21
266,012	-3,37
266,386	-4,44
266,76	-3,55
267,133	-1,35
267,507	-0,4
267,88	1,25
268,254	-0,2
268,628	-1,34
269,001	0,14
269,375	2,99
269,748	3,07
270,121	4,06
270,495	5,59
270,868	6,08
271,241	3,5
271,615	1,58
271,988	1,43
272,361	-0,51
272,734	1,94
273,107	1,47
273,48	1,75
273,853	0,51
274,226	-0,06
274,599	-0,75
274,972	0,94
275,345	1,79
275,718	2,95
276,091	4,97
276,464	6,06
276,836	6,12
277,209	5,87
277,582	4,67
277,954	4,98
278,327	2,73
278,7	3,89
279,072	2,08
279,445	2,32
279,817	1,75
280,189	0,74
280,562	1,19
280,934	-0,91
281,306	-0,89
281,679	-0,52
282,051	0,29
282,423	-1,01
282,795	-1,57
283,167	0,16
283,539	1,12
283,911	-0,13
284,283	-0,72
284,655	-1,58
285,027	-0,28
285,399	-0,91
285,771	-0,82
286,143	-3,55
286,515	-0,22
286,886	-1,32
287,258	-5,05
287,63	-5,42
288,001	-5,59
288,373	-3,5
288,745	-4,52
289,116	-6,04
289,488	-7,38
289,859	-6,84
290,23	-6,59
290,602	-5,53
290,973	-7,01
291,344	-1,37
291,716	-3,99
292,087	-2,86
292,458	-1,86
292,829	-1,25
293,2	0,24
293,571	2,17
293,942	1,17
294,313	3,02
294,684	3,65
295,055	6,03
295,426	5,86
295,797	10,08
296,168	10,77
296,539	8,31
296,909	10,7
297,28	10,29
297,651	10
298,021	10,83
298,392	10,74
298,763	7,15
299,133	6,94
299,503	2,87
299,874	-0,14
300,244	-0,6
300,615	-1,82
300,985	-4,09
301,355	-2,95
301,726	-2,55
302,096	-2,35
302,466	-2,94
302,836	-0,54
303,206	-0,96
303,576	1,43
303,946	1,81
304,316	1,6
304,686	3,22
305,056	3,61
305,426	1,21
305,796	0,18
306,166	-0,36
306,535	-0,28
306,905	-1,68
307,275	-1,86
307,644	-4,3
308,014	-2,14
308,383	-1,82
308,753	-2,31
309,122	-2,96
309,492	-2,67
309,861	-2,16
310,231	-1,84
310,6	-1,67
310,969	-2,22
311,339	-2,21
311,708	-2,06
312,077	-4,25
312,446	-3,69
312,815	-4,02
313,184	-3,31
313,553	-1,73
313,922	0,05
314,291	0,19
314,66	1,68
315,029	4,02
315,398	4,63
315,767	6,17
316,136	5,72
316,504	6,33
316,873	8,18
317,242	6,32
317,61	5,87
317,979	4,74
318,347	4,85
318,716	1,14
319,084	0,08
319,453	-1,88
319,821	-1,94
320,189	-0,07
320,558	-0,84
320,926	-3,89
321,294	-2,06
321,662	-2,79
322,031	-3,46
322,399	-3,77
322,767	-0,35
323,135	-0,01
323,503	1,25
323,871	1,75
324,239	-0,18
324,607	-0,62
324,974	3,41
325,342	4,14
325,71	4,04
326,078	4,63
326,445	6,21
326,813	3,71
327,181	2,05
327,548	1,98
327,916	2,54
328,283	1,71
328,651	2,22
329,018	-2,36
329,385	-1,29
329,753	-1,57
330,12	-2,73
330,487	-4,28
330,855	-3,31
331,222	-4,96
331,589	-4,7
331,956	-5,85
332,323	-5,39
332,69	-5,1
333,057	-2,71
333,424	-6,07
333,791	-4,14
334,158	-5,59
334,525	-5,45
334,892	-5,48
335,258	-4,44
335,625	-3,39
335,992	-3,1
336,358	-4,2
336,725	-5,24
337,091	-5,96
337,458	-3,56
337,824	-5,96
338,191	-5,1
338,557	-5,18
338,924	-5,38
339,29	-3,67
339,656	-4,68
340,023	-6,79
340,389	-4,1
340,755	-3,7
341,121	-3,77
341,487	-4,15
341,853	-2,11
342,219	0,4
342,585	1,39
342,951	1,42
343,317	1,76
343,683	1,58
344,049	2,97
344,415	2,97
344,78	1,81
345,146	4,16
345,512	4,14
345,877	4,25
346,243	3,52
346,608	3,38
346,974	4,29
347,339	5,36
347,705	7,24
348,07	8,25
348,436	10,84
348,801	11,99
349,166	10,98
349,531	12,03
349,897	12,84
350,262	13,21
350,627	12,43
350,992	11,87
351,357	11,57
351,722	9,4
352,087	8,08
352,452	3,19
352,817	0,31
353,181	0,15
353,546	-1,75
353,911	-3,31
354,276	-3,01
354,64	-3,04
355,005	-3,15
355,37	-3,29
355,734	-3,43
356,099	-3,55
356,463	-1,61
356,828	1,71
357,192	1,01
357,556	0,52
357,921	1,02
358,285	-0,98
358,649	-0,65
359,013	0,74
359,378	1,15
359,742	2,62
360,106	3,82
360,47	2,79
360,834	1,91
361,198	2,12
361,562	3,28
361,926	2,75
362,289	4,21
362,653	3,73
363,017	0,99
363,381	-1,02
363,744	-0,26
364,108	0,5
364,472	0,25
364,835	0,94
365,199	1,35
365,562	0,53
365,926	-1,54
366,289	-3,1
366,652	-1,02
367,016	0,2
367,379	0,71
367,742	-1,33
368,105	-2,91
368,469	-2,28
368,832	-2,21
369,195	-1,44
369,558	-2,93
369,921	-1,97
370,284	-1,12
370,647	-2,42
371,01	-2,41
371,372	-4,22
371,735	-4,79
372,098	-5,77
372,461	-6,73
372,823	-7,67
373,186	-8,29
373,549	-5,35
373,911	-5,64
374,274	-5,71
374,636	-7,72
374,999	-9,94
375,361	-7,89
375,723	-5,79
376,086	-4,53
376,448	-5,31
376,81	-6,43
377,172	-6,75
377,535	-6,84
377,897	-8,19
378,259	-7,81
378,621	-6,71
378,983	-4,55
379,345	-3,94
379,707	-5,51
380,068	-4,88
380,43	-1,69
380,792	0,47
381,154	0,29
381,516	-0,41
381,877	1,56
382,239	2,18
382,6	3,82
382,962	4,57
383,323	5,4
383,685	5,52
384,046	2,2
384,408	1,89
384,769	0,57
385,13	0,49
385,492	0,1
385,853	0,61
386,214	1,32
386,575	-1,1
386,936	-3,82
387,297	-5,94
387,658	-3,13
388,019	1,8
388,38	1,98
388,741	2,07
389,102	2,01
389,463	5,47
389,823	6,82
390,184	4,53
390,545	7,56
390,906	7,6
391,266	9,86
391,627	6,86
391,987	5,46
392,348	6,06
392,708	6,27
393,069	6,76
393,429	1,96
393,789	2,97
394,15	2,7
394,51	2,08
394,87	2,82
395,23	1,14
395,59	0,66
395,95	-2,61
396,31	-3,87
396,67	-2,05
397,03	-0,5
397,39	2,44
397,75	-0,99
398,11	-1,64
398,47	-3,91
398,829	-2,43
399,189	-2,82
399,549	1,47
399,908	5,2
400,268	3,99
400,627	2,79
400,987	1,43
401,346	-0,05
401,706	5,65
402,065	12,22
402,424	26,31
402,784	58,56
403,143	146,1
403,502	329,95
403,861	568,27
404,221	750,95
404,58	861,23
404,939	924,38
405,298	956,39
405,657	963,76
406,015	962,75
406,374	953,16
406,733	920,94
407,092	835,04
407,451	649,17
407,809	409,42
408,168	226,73
408,527	117,26
408,885	51,98
409,244	21,2
409,602	9,2
409,961	6,02
410,319	3,2
410,678	4,46
411,036	3,29
411,394	2,42
411,752	4,08
412,111	7,49
412,469	6,22
412,827	9,87
413,185	9,5
413,543	9,36
413,901	9,5
414,259	9,33
414,617	10,27
414,975	11,27
415,333	9,61
415,69	6,6
416,048	3,94
416,406	5,43
416,763	3,77
417,121	4,37
417,479	6,21
417,836	5,75
418,194	6,25
418,551	5,01
418,909	4,62
419,266	7,64
419,623	11,92
419,981	14,71
420,338	14,09
420,695	16,33
421,052	15,74
421,409	13,62
421,766	15,34
422,123	12,26
422,48	12,66
422,837	13,48
423,194	11,98
423,551	8
423,908	6,06
424,265	6,71
424,621	5,28
424,978	5,43
425,335	8,53
425,691	7,83
426,048	12,35
426,404	12,9
426,761	12,38
427,117	12,81
427,474	15,9
427,83	14,1
428,186	13,97
428,543	13,85
428,899	14,46
429,255	13,05
429,611	12,44
429,967	12,65
430,323	11,7
430,679	11,68
431,035	14,95
431,391	15,9
431,747	19,15
432,103	20,33
432,459	22,42
432,815	23,44
433,17	25,58
433,526	26,9
433,882	27,45
434,237	28,35
434,593	31,91
434,948	29,74
435,304	29,23
435,659	28,04
436,014	27,72
436,37	28,9
436,725	27,49
437,08	26,58
437,436	26,52
437,791	25,5
438,146	25,17
438,501	22,71
438,856	21,98
439,211	21,61
439,566	22,98
439,921	24,41
440,276	24,5
440,63	26,44
440,985	27,49
441,34	28,75
441,695	29,58
442,049	29,48
442,404	29,41
442,758	29,64
443,113	30,86
443,467	32,42
443,822	31,54
444,176	28,99
444,531	29,72
444,885	28,47
445,239	29,89
445,593	29,23
445,948	30,22
446,302	31,98
446,656	37,38
447,01	38,73
447,364	37,75
447,718	36,47
448,072	36,14
448,426	37,06
448,779	38,97
449,133	36,3
449,487	37,43
449,841	37,89
450,194	39,07
450,548	37,19
450,902	37,01
451,255	39,08
451,609	43,37
451,962	45,47
452,315	44,73
452,669	43,49
453,022	46,57
453,375	45,32
453,729	45,13
454,082	46,7
454,435	47,29
454,788	46,25
455,141	46,32
455,494	45,9
455,847	44,8
456,2	45,74
456,553	47,42
456,906	46,7
457,258	48,59
457,611	49,24
457,964	47,2
458,316	47,26
458,669	49,31
459,022	47,69
459,374	44,64
459,727	46,98
460,079	42,12
460,432	41,63
460,784	42,05
461,136	42,39
461,488	43,19
461,841	42,59
462,193	43,67
462,545	43,09
462,897	45,25
463,249	48,96
463,601	48,45
463,953	54,71
464,305	57,72
464,657	58,31
465,009	58,37
465,361	58,46
465,712	60,87
466,064	60,18
466,416	60,08
466,767	60,37
467,119	60,95
467,47	63,13
467,822	62,54
468,173	60,82
468,525	62,14
468,876	64,08
469,227	66,2
469,579	65,98
469,93	65,71
470,281	65,65
470,632	66,44
470,983	64,88
471,334	64,09
471,685	65,23
472,036	65,07
472,387	65,59
472,738	65,53
473,089	62,27
473,44	60,41
473,79	60,06
474,141	59,18
474,492	60,01
474,842	62,57
475,193	64,92
475,543	65,28
475,894	65,99
476,244	66,7
476,595	66,28
476,945	69,77
477,295	74,91
477,645	77,3
477,996	83,03
478,346	81,04
478,696	80,96
479,046	79,75
479,396	80,6
479,746	84,25
480,096	81,99
480,446	83,74
480,796	85,16
481,145	84,95
481,495	84,37
481,845	83,78
482,195	84,37
482,544	84
482,894	86,8
483,243	87,65
483,593	84,44
483,942	86,63
484,292	86,11
484,641	84,68
484,99	84,11
485,34	85,77
485,689	83,87
486,038	87,73
486,387	87,97
486,736	85,99
487,085	86,34
487,434	89,89
487,783	90,54
488,132	94,73
488,481	97,19
488,83	98,14
489,179	97,58
489,527	101,66
489,876	101,87
490,225	105,71
490,573	106,33
490,922	108,26
491,27	110,45
491,619	112,5
491,967	112,26
492,316	113,26
492,664	116,6
493,012	119,66
493,361	118,4
493,709	118,99
494,057	120,33
494,405	124,63
494,753	127,53
495,101	126,74
495,449	128,72
495,797	130,74
496,145	134,02
496,493	137,05
496,84	140,09
497,188	145,55
497,536	151,52
497,884	154,44
498,231	158,66
498,579	161,77
498,926	168,73
499,274	176,73
499,621	182,51
499,969	188,43
500,316	195,43
500,663	203,22
501,01	210,01
501,358	217,24
501,705	226,6
502,052	234,78
502,399	245,19
502,746	257,03
503,093	267,26
503,44	281,14
503,787	295,25
504,134	306,78
504,481	321,81
504,827	338,89
505,174	357,29
505,521	378,25
505,867	399,56
506,214	423,42
506,56	445,07
506,907	468,25
507,253	494,37
507,6	522,22
507,946	552,04
508,292	581,96
508,639	613,79
508,985	648,12
509,331	683,05
509,677	722,57
510,023	761,25
510,369	803,14
510,715	848,42
511,061	891,48
511,407	934,22
511,753	979,55
512,099	1027,15
512,444	1077,01
512,79	1123,64
513,136	1171,17
513,481	1216,9
513,827	1265,3
514,172	1311,38
514,518	1356,06
514,863	1403,62
515,209	1451,26
515,554	1498,73
515,899	1542,02
516,245	1584,13
516,59	1621,38
516,935	1660,83
517,28	1696,9
517,625	1725,68
517,97	1754,78
518,315	1779,09
518,66	1801,39
519,005	1820,09
519,35	1831,36
519,695	1843,48
520,039	1848,04
520,384	1853,07
520,729	1849,14
521,073	1847,37
521,418	1842,79
521,762	1832,24
522,107	1820,16
522,451	1802,35
522,796	1781,06
523,14	1762,12
523,484	1739,78
523,829	1715,5
524,173	1692,6
524,517	1668,9
524,861	1637,94
525,205	1606,37
525,549	1576,95
525,893	1548,83
526,237	1519,39
526,581	1491,72
526,925	1459,71
527,269	1431,69
527,612	1401,26
527,956	1369,79
528,3	1342,57
528,643	1314,42
528,987	1288,25
529,33	1263,87
529,674	1239,12
530,017	1215,34
530,36	1193,56
530,704	1171,44
531,047	1146,69
531,39	1129,36
531,733	1112,85
532,077	1090,47
532,42	1072,69
532,763	1053,46
533,106	1035,54
533,449	1016,81
533,792	1002,64
534,134	983,76
534,477	970,19
534,82	955,4
535,163	940,29
535,505	923,12
535,848	911,02
536,191	896,58
536,533	884,96
536,876	873,52
537,218	862,55
537,56	850,66
537,903	841,59
538,245	831,7
538,587	821,23
538,93	810,08
539,272	800,93
539,614	790,85
539,956	782,07
540,298	773,16
540,64	763,39
540,982	755,6
541,324	747,63
541,666	738,87
542,007	730,26
542,349	725,57
542,691	719,4
543,032	712,63
543,374	706,06
543,716	703,42
544,057	702,82
544,398	701,01
544,74	699,21
545,081	695,03
545,423	690,91
545,764	687,93
546,105	685,17
546,446	683,65
546,787	683
547,128	684,6
547,469	683,69
547,81	682,36
548,151	680,82
548,492	677
548,833	679,55
549,174	685,9
549,515	688,78
549,855	688,07
550,196	692,25
550,537	696,85
550,877	697,56
551,218	700,98
551,558	703,97
551,899	708,43
552,239	714,97
552,579	719,86
552,92	724,57
553,26	730,81
553,6	737,6
553,94	743,58
554,28	751,21
554,62	760,5
554,96	770,54
555,3	780,19
555,64	790,09
555,98	800,76
556,32	809,75
556,66	820,63
556,999	836,17
557,339	851,2
557,679	867,27
558,018	881,22
558,358	898,31
558,697	915,07
559,037	933,58
559,376	953,65
559,715	974,85
560,055	1000,59
560,394	1023,52
560,733	1048,13
561,072	1076,2
561,411	1105,23
561,75	1139,39
562,089	1174,71
562,428	1213,99
562,767	1256,22
563,106	1298,82
563,445	1345,39
563,784	1391,47
564,122	1445,56
564,461	1501,47
564,8	1561,9
565,138	1625,61
565,477	1694,01
565,815	1766,77
566,154	1842,72
566,492	1923,21
566,83	2011,48
567,169	2101,21
567,507	2200,69
567,845	2305,69
568,183	2416,85
568,521	2533,5
568,859	2657,49
569,197	2781,91
569,535	2918,56
569,873	3063,28
570,211	3213,42
570,549	3371,73
570,887	3537,82
571,224	3706,96
571,562	3884,98
571,9	4069,24
572,237	4256,26
572,575	4457,74
572,912	4669,1
573,25	4882,38
573,587	5097,2
573,924	5322,35
574,262	5550,74
574,599	5785,66
574,936	6026,83
575,273	6271,97
575,61	6524,64
575,947	6781,38
576,284	7032,51
576,621	7285,11
576,958	7538,97
577,295	7796,03
577,632	8052,03
577,969	8301,45
578,305	8544,43
578,642	8774,36
578,979	9006,92
579,315	9222,77
579,652	9430,66
579,988	9626,34
580,325	9814,03
580,661	9982,71
580,997	10135,35
581,334	10266,83
581,67	10391,98
582,006	10499,73
582,342	10602,8
582,678	10666,28
583,014	10719,4
583,35	10755,64
583,686	10774,21
584,022	10767,79
584,358	10754,92
584,694	10726,34
585,029	10683,08
585,365	10618,69
585,701	10543,67
586,036	10443,15
586,372	10341,41
586,707	10226,31
587,043	10098,72
587,378	9958,17
587,714	9818,05
588,049	9662,64
588,384	9500,34
588,719	9330,46
589,054	9152,12
589,39	8967,95
589,725	8784,28
590,06	8600,06
590,395	8412,01
590,729	8227,86
591,064	8042,47
591,399	7847,31
591,734	7655,98
592,069	7464,88
592,403	7281,33
592,738	7103,23
593,073	6930,39
593,407	6759,33
593,742	6588,7
594,076	6421,79
594,41	6251,85
594,745	6089,54
595,079	5935,35
595,413	5788,36
595,747	5642,24
596,081	5497,4
596,416	5357,5
596,75	5220,01
597,084	5090,42
597,418	4963,07
597,751	4839,76
598,085	4727,62
598,419	4617,62
598,753	4510,58
599,086	4402,75
599,42	4302,75
599,754	4206,13
600,087	4112,84
600,421	4024,92
600,754	3935,3
601,088	3850,85
601,421	3773,88
601,754	3696,85
602,088	3622,61
602,421	3551,01
602,754	3481,84
603,087	3415,64
603,42	3351,45
603,753	3291,17
604,086	3232,37
604,419	3176,74
604,752	3121,37
605,085	3064,11
605,417	3011,03
605,75	2961,72
606,083	2914,3
606,415	2869,09
606,748	2826,55
607,08	2786,79
607,413	2743,41
607,745	2702,02
608,078	2667,04
608,41	2634,58
608,742	2600,45
609,074	2567,76
609,407	2534,38
609,739	2504,96
610,071	2475,8
610,403	2445,49
610,735	2414,73
611,067	2391,12
611,399	2367,89
611,73	2340,11
612,062	2313,68
612,394	2289,96
612,726	2269,6
613,057	2251,44
613,389	2232,86
613,72	2217,21
614,052	2205,26
614,383	2188,36
614,715	2173,33
615,046	2156,15
615,377	2146,5
615,708	2135,66
616,04	2129,95
616,371	2120,35
616,702	2113,29
617,033	2109,42
617,364	2103,74
617,695	2097,74
618,026	2098,65
618,356	2099,3
618,687	2105,97
619,018	2108,89
619,349	2114,23
619,679	2118,05
620,01	2121,62
620,34	2126,71
620,671	2132,65
621,001	2137,81
621,332	2143,05
621,662	2148,66
621,992	2154,8
622,322	2158,38
622,653	2163,84
622,983	2170,28
623,313	2177,16
623,643	2187,01
623,973	2193,63
624,303	2197,79
624,633	2205,6
624,962	2214,4
625,292	2221,63
625,622	2226,34
625,952	2233,63
626,281	2241,97
626,611	2248,05
626,94	2254,74
627,27	2260,91
627,599	2265,83
627,929	2271,29
628,258	2271,83
628,587	2275,15
628,916	2280,67
629,246	2287,67
629,575	2290,62
629,904	2291,03
630,233	2291,68
630,562	2293,34
630,891	2292,09
631,22	2294,23
631,548	2293,96
631,877	2296,22
632,206	2294,83
632,535	2293,44
632,863	2290,59
633,192	2284,22
633,52	2279,66
633,849	2275,76
634,177	2267,12
634,506	2261,7
634,834	2252,78
635,162	2243,19
635,49	2233,83
635,819	2219,66
636,147	2206,07
636,475	2190,94
636,803	2179,2
637,131	2164,16
637,459	2142,47
637,787	2126,78
638,114	2104,99
638,442	2082,19
638,77	2063,75
639,098	2043,28
639,425	2023,14
639,753	1997,54
640,08	1974,51
640,408	1949,3
640,735	1923,95
641,062	1901,83
641,39	1875,18
641,717	1850,04
642,044	1820,77
642,371	1792,82
642,699	1764,81
643,026	1733,54
643,353	1708,29
643,68	1677,89
644,006	1647,78
644,333	1618,9
644,66	1589,95
644,987	1560,89
645,314	1531,32
645,64	1505,25
645,967	1474,79
646,293	1441,07
646,62	1414,53
646,946	1382,26
647,273	1352,13
647,599	1324,67
647,925	1295,49
648,252	1265,96
648,578	1235,07
648,904	1209,07
649,23	1184,09
649,556	1157,22
649,882	1132,95
650,208	1108,61
650,534	1086,05
650,86	1064,37
651,185	1041,19
651,511	1020,52
651,837	998,7
652,162	982,45
652,488	961,86
652,814	939,6
653,139	920,86
653,464	904,05
653,79	883,86
654,115	864,64
654,44	845,96
654,766	827,64
655,091	808,47
655,416	794,52
655,741	775,3
656,066	758,73
656,391	746,7
656,716	733,56
657,041	718,62
657,366	705,3
657,69	692,88
658,015	678,8
658,34	667,63
658,664	656,76
658,989	643,62
659,313	632,72
659,638	620,23
659,962	606,47
660,286	592,68
660,611	581,87
660,935	570,8
661,259	559,49
661,583	550,5
661,907	539,97
662,231	528,72
662,555	520,21
662,879	508,61
663,203	501,13
663,527	492,64
663,851	486,87
664,175	479,3
664,498	472,07
664,822	465,57
665,145	457,78
665,469	450,55
665,792	444,51
666,116	437,77
666,439	432,98
666,763	424,08
667,086	418,06
667,409	409,26
667,732	401,47
668,055	396,26
668,378	389,67
668,701	384,08
669,024	378,64
669,347	372,47
669,67	367,99
669,993	362,28
670,316	360,05
670,638	355,81
670,961	349,07
671,283	347,62
671,606	342,73
671,928	338,36
672,251	332,89
672,573	328,04
672,896	324,22
673,218	318,53
673,54	317,29
673,862	312,81
674,184	306,91
674,506	303,77
674,828	296,93
675,15	291,97
675,472	289,11
675,794	286,56
676,116	284,14
676,438	280,61
676,759	278,68
677,081	274,72
677,403	271,93
677,724	271,67
678,046	270,95
678,367	267,66
678,689	265,95
679,01	263,78
679,331	261,86
679,652	261,99
679,974	261,6
680,295	256,78
680,616	252,9
680,937	253,24
681,258	249,25
681,579	247,21
681,9	246,99
682,22	244,59
682,541	242,73
682,862	241,11
683,183	239,64
683,503	236,71
683,824	236,16
684,144	234,62
684,465	230,77
684,785	229,04
685,105	225,9
685,426	225,67
685,746	226,17
686,066	226,19
686,386	224,84
686,706	219,14
687,026	218,76
687,346	219,86
687,666	217,47
687,986	216,79
688,306	217,9
688,626	218,64
688,945	215,43
689,265	212,4
689,585	207,92
689,904	205,11
690,224	205,81
690,543	202,57
690,862	199,86
691,182	197,78
691,501	195,04
691,82	193
692,139	189,85
692,459	187,38
692,778	187,15
693,097	186,76
693,416	187,54
693,735	186,66
694,053	183,19
694,372	181,75
694,691	183,68
695,01	181,32
695,328	176,91
695,647	175,95
695,966	175,74
696,284	170,77
696,602	168,71
696,921	164,1
697,239	159,56
697,557	160,78
697,876	155,79
698,194	149,64
698,512	148,63
698,83	149,14
699,148	147,49
699,466	146,45
699,784	145,19
700,102	141,5
700,42	143,5
700,737	141,51
701,055	137,12
701,373	135,95
701,69	136,82
702,008	132,06
702,325	127,68
702,643	126,09
702,96	121,31
703,277	120,36
703,595	121,22
703,912	115,63
704,229	112,02
704,546	112,23
704,863	111,72
705,18	109,6
705,497	110,53
705,814	110,13
706,131	105,68
706,448	106,12
706,764	107,01
707,081	104,6
707,398	103,44
707,714	104,07
708,031	101,26
708,347	99,13
708,664	97,8
708,98	94,95
709,296	93,55
709,613	92,35
709,929	89,54
710,245	84,03
710,561	81,01
710,877	78,58
711,193	76,83
711,509	75,73
711,825	74,53
712,141	72,84
712,457	70,1
712,772	68
713,088	68,6
713,403	67,27
713,719	67,17
714,035	66,23
714,35	65,63
714,665	65,91
714,981	65,29
715,296	65,35
715,611	63,87
715,926	63,83
716,242	62,68
716,557	61,69
716,872	61,57
717,187	61,3
717,502	60,76
717,816	59,63
718,131	58,28
718,446	56,68
718,761	55,04
719,075	53,09
719,39	52,68
719,704	53,22
720,019	51,68
720,333	50,15
720,648	48,7
720,962	46,71
721,276	44,84
721,59	42,73
721,905	42,51
722,219	40,3
722,533	39,28
722,847	38,87
723,161	36,29
723,475	34,75
723,788	33,13
724,102	29,71
724,416	31,92
724,73	31,46
725,043	31,99
725,357	30,33
725,67	29,34
725,984	29,47
726,297	27,76
726,61	28,69
726,924	29,32
727,237	27,56
727,55	27,85
727,863	26,11
728,176	28,45
728,489	27,54
728,802	28,88
729,115	30,64
729,428	31,12
729,741	29,8
730,054	28,56
730,366	28,38
730,679	30,28
730,992	32,13
731,304	33,22
731,617	32,15
731,929	31,47
732,241	29,61
732,554	30,64
732,866	27,31
733,178	27,76
733,49	27,74
733,802	26,38
734,114	25,41
734,426	23,63
734,738	21,39
735,05	20,67
735,362	19,06
735,674	17,66
735,985	13,88
736,297	17,56
736,609	18,9
736,92	20,15
737,232	22,46
737,543	22,8
737,854	21,82
738,166	19,91
738,477	19,52
738,788	20,67
739,099	20,4
739,411	20,66
739,722	18,52
740,033	18,01
740,344	15,03
740,654	10,67
740,965	12,69
741,276	12,25
741,587	13,71
741,897	14,38
742,208	11,95
742,519	6,99
742,829	5,28
743,14	4,52
743,45	3,09
743,76	1,83
744,071	2,33
744,381	-0,04
744,691	1,7
745,001	2,92
745,311	3,93
745,621	6,64
745,931	11,37
746,241	13,58
746,551	14,55
746,861	14,02
747,17	15,15
747,48	15,21
747,79	15,31
748,099	15,95
748,409	13,09
748,718	12,85
749,027	12,1
749,337	14,19
749,646	12,03
749,955	11,75
750,265	11,37
750,574	11,99
750,883	14,49
751,192	13,92
751,501	10,79
751,81	13,64
752,118	9,33
752,427	6,56
752,736	5,66
753,045	7,23
753,353	6,23
753,662	6,68
753,97	5,26
754,279	2,86
754,587	3,62
754,896	7,78
755,204	6,81
755,512	6,8
755,82	10,44
756,128	10,06
756,436	10,56
756,744	10,84
757,052	12,33
757,36	13,7
757,668	13,45
757,976	14,48
758,284	12,28
758,591	9,87
758,899	12,64
759,207	10,17
759,514	9,74
759,821	7,36
760,129	7,87
760,436	7,56
760,744	7,75
761,051	7,31
761,358	6,34
761,665	4,82
761,972	4,23
762,279	4,19
762,586	5,46
762,893	4,67
763,2	4,86
763,507	3,99
763,813	2,51
764,12	1,91
764,427	1,79
764,733	-1,1
765,04	0,92
765,346	2,87
765,653	0,42
765,959	0,17
766,265	-0,32
766,571	1,94
766,878	0,59
767,184	1,13
767,49	0,67
767,796	1,57
768,102	3,56
768,408	1,36
768,713	0,49
769,019	2,19
769,325	1,63
769,631	2,66
769,936	0,38
770,242	0,23
770,547	1,43
770,853	2,67
771,158	2,65
771,463	2,26
771,769	3,35
772,074	2,91
772,379	0,68
772,684	-0,23
772,989	-2,95
773,294	-1,8
773,599	-2,61
773,904	-5,93
774,209	-6,7
774,514	-7,23
774,818	-8,48
775,123	-7,76
775,428	-7,69
775,732	-6,74
776,037	-5,94
776,341	-1,25
776,645	-0,43
776,95	-0,59
777,254	0,61
777,558	0,17
777,862	0,57
778,166	0,49
778,47	-0,17
778,774	1,51
779,078	2,34
779,382	4,23
779,686	3,12
779,99	4,2
780,293	5,89
780,597	7,83
780,901	5,86
781,204	5,04
781,508	5,59
781,811	6,13
782,114	5,61
782,418	5,31
782,721	4,37
783,024	4,77
783,327	0,7
783,63	2,56
783,933	0,73
784,236	1,63
784,539	2,72
784,842	1,42
785,145	3,25
785,447	2,92
785,75	1,43
786,053	0,89
786,355	-0,87
786,658	1,6
786,96	1,01
787,263	-0,52
787,565	-0,81
787,867	-1,61
788,169	0,38
788,472	-1,93
788,774	-3,14
789,076	-1,83
789,378	-2,67
789,68	-0,34
789,982	-2,12
790,283	-3,16
790,585	0,7
790,887	2,47
791,188	3,7
791,49	2
791,792	0,91
792,093	2,47
792,394	2,15
792,696	3,39
792,997	0,64
793,298	1,14
793,6	2,65
793,901	1,44
794,202	0,31
794,503	-1,39
794,804	-1,02
795,105	-0,11
795,405	-0,97
795,706	0,24
796,007	-0,41
796,308	0,17
796,608	0,64
796,909	-2,36
797,209	-2,52
797,51	-3,76
797,81	-4,11
798,11	-4,57
798,411	-4,67
798,711	-4,64
799,011	-5,45
799,311	-6,48
799,611	-4,06
799,911	-4,23
800,211	-4,14
800,511	-3,32
800,811	-0,94
801,111	1,25
801,41	1,09
801,71	1,21
802,009	0,48
802,309	0,19
802,608	-0,25
802,908	-2,11
803,207	-1,21
803,507	0,63
803,806	-1,59
804,105	-0,33
804,404	-3,06
804,703	0,37
805,002	0,62
805,301	2,18
805,6	3,01
805,899	2,97
806,198	2,72
806,496	2,97
806,795	2,27
807,094	5,26
807,392	1,69
807,691	4,22
807,989	1,26
808,287	2,03
808,586	2,55
808,884	2,32
809,182	2,44
809,48	1,55
809,778	0,45
810,076	2,86
810,374	-1,23
810,672	-0,51
810,97	-0,94
811,268	0,13
811,566	-3,1
811,863	-4,23
812,161	-6,61
812,458	-5,95
812,756	-4,52
813,053	-4,87
813,351	-8,44
813,648	-4,99
813,945	-6,01
814,242	-6,88
814,54	-5,85
814,837	-4,65
815,134	-3,04
815,431	-0,2
815,728	-2,27
816,025	-2,31
816,321	-2,92
816,618	-0,29
816,915	-4,2
817,211	-1,25
817,508	-0,61
817,804	-2,47
818,101	-2,3
818,397	-3,91
818,694	-5,29
818,99	-3,97
819,286	-3,14
819,582	-2,74
819,878	-4,52
820,174	-0,24
820,47	-0,66
820,766	-0,81
821,062	-0,73
821,358	-0,22
821,654	-0,16
821,949	1,56
822,245	2,44
822,541	2,27
822,836	1,98
823,132	3,49
823,427	-1,1
823,722	-0,92
824,018	0,45
824,313	-0,81
824,608	-1,39
824,903	-0,79
825,198	-2,12
825,493	-2
825,788	-3,18
826,083	-1,87
826,378	-4,13
826,672	-1,5
826,967	-3
827,262	-6,23
827,556	-5,25
827,851	-6,8
828,145	-8,38
828,44	-9,6
828,734	-10,21
829,028	-10,84
829,323	-12,54
829,617	-9,66
829,911	-8,51
830,205	-9,42
830,499	-6,01
830,793	-5,7
831,087	-2,99
831,381	-1,57
831,674	1,24
831,968	2,58
832,262	3,58
832,555	4,77
832,849	4,46
833,142	2,39
833,436	5,16
833,729	3,15
834,022	2,75
834,315	3,6
834,609	3,25
834,902	1,62
835,195	-0,59
835,488	-1,32
835,781	-4,18
836,074	-6,05
836,366	-6,75
836,659	-8,93
836,952	-8,2
837,244	-8,47
837,537	-8,4
837,829	-9,41
838,122	-10,7
838,414	-8,81
838,707	-7,1
838,999	-4,57
839,291	-3,46
839,583	-1,68
839,875	-0,02
840,167	0,8
840,459	-0,79
840,751	-2,4
841,043	-2,97
841,335	-1,56
841,627	-1,66
841,918	-4,07
842,21	-1,78
842,502	-0,61
842,793	-1,95
843,085	-3,48
843,376	-2,8
843,667	1,74
843,959	1,6
844,25	4,57
844,541	4,61
844,832	3,01
845,123	4,04
845,414	1,46
845,705	0,47
845,996	1,66
846,287	1,44
846,577	-0,56
846,868	-0,83
847,159	-0,58
847,449	-1,95
847,74	-2,23
848,03	-1,03
848,32	-1,91
848,611	-1,53
848,901	-2,05
849,191	-1,66
849,481	0,24
849,771	-0,51
850,061	-1,84
850,351	-0,3
850,641	-2,01
850,931	-1,79
851,221	-1,98
851,511	-1,73
851,8	-0,41
852,09	-1
852,379	-0,56
852,669	-2,32
852,958	-0,64
853,248	-1,4
853,537	-3,26
853,826	-2,68
854,115	-3,48
854,404	-4,96
854,693	-3,64
854,982	-6,38
855,271	-6,43
855,56	-10,01
855,849	-8,81
856,138	-9,09
856,427	-11,3
856,715	-10,7
857,004	-8,74
857,292	-7,4
857,581	-6,21
857,869	-8,06
858,157	-7,52
858,446	-7,78
858,734	-6,14
859,022	-7,37
859,31	-6,26
859,598	-4,18
859,886	-5,69
860,174	-6,28
860,462	-6,39
860,75	-6,85
861,037	-5,93
861,325	-5,16
861,613	-4,14
861,9	-1,37
862,188	-1,48
862,475	-1,08
862,763	-0,61
863,05	-1,72
863,337	-0,46
863,624	-0,96
863,911	-0,46
864,199	-0,87
864,486	0,07
864,772	1,24
865,059	2,2
865,346	4,1
865,633	2,69
865,92	0,66
866,206	2,93
866,493	3,41
866,779	4,06
867,066	3,6
867,352	4,72
867,639	5,2
867,925	5,06
868,211	2,52
868,497	-0,52
868,783	-1,24
869,069	1,44
869,355	1,9
869,641	-0,84
869,927	-3,37
870,213	-0,27
870,499	-0,11
870,784	-2,58
871,07	-3,71
871,356	-3,62
871,641	-2,16
871,926	-1,39
872,212	-4,49
872,497	-4,09
872,782	-3,01
873,068	0,91
873,353	-0,3
873,638	-1,99
873,923	0,09
874,208	0,06
874,493	-0,61
874,777	-0,61
875,062	-1,32
875,347	0,88
875,632	0,41
875,916	0,7
876,201	-4,24
876,485	-6,37
876,77	-4,74
877,054	-4,11
877,338	-2,76
877,622	-4,36
877,906	-2,06
878,191	-0,34
878,475	1,66
878,759	1,79
879,042	1,05
879,326	5,59
879,61	8,33
879,894	8,76
