Data from Subt4__52__52.txt Node

Date: Fri Jun 07 14:39:50 CEST 2024
User: Naturwissenschaft
Spectrometer: FLMS00572
Trigger mode: 0
Integration Time (sec): 5,000000E-2
Scans to average: 20
Electric dark correction enabled: true
Nonlinearity correction enabled: false
Boxcar width: 5
XAxis mode: Wavelengths
Number of Pixels in Spectrum: 2048
>>>>>Begin Spectral Data<<<<<
190,164	-12,56
190,544	-10,33
190,925	-8,49
191,306	-6,72
191,687	-5,62
192,067	-5,8
192,448	-4,21
192,829	-3,29
193,209	-1,56
193,59	-1,79
193,97	-0,94
194,351	-1,58
194,731	-1,18
195,112	-1,76
195,492	-2,35
195,872	-2,73
196,253	-2,06
196,633	-0,37
197,013	1,56
197,393	1,67
197,773	4,04
198,154	3,65
198,534	3,65
198,914	5,34
199,294	5,65
199,674	6,89
200,054	6,05
200,434	5,29
200,814	5
201,194	2,97
201,573	0,64
201,953	-0,43
202,333	-1,47
202,713	-2,35
203,092	-5,08
203,472	-6,12
203,852	-5,71
204,231	-3,9
204,611	-4,25
204,99	-5,38
205,37	-4,98
205,749	-1,59
206,129	-0,87
206,508	-0,22
206,887	1,79
207,267	0,81
207,646	1,6
208,025	-0,82
208,405	0,59
208,784	1,13
209,163	1,66
209,542	3,05
209,921	0,56
210,3	1,19
210,679	1,9
211,058	-0,13
211,437	3,74
211,816	4,82
212,195	4,11
212,574	2,98
212,952	2,52
213,331	2,62
213,71	3,04
214,089	3,34
214,467	2,59
214,846	2,31
215,225	2,37
215,603	0,28
215,982	-1,19
216,36	-0,68
216,739	-2,04
217,117	-1,72
217,495	-3,33
217,874	-6,09
218,252	-5,59
218,63	-5,56
219,009	-4,18
219,387	-4,93
219,765	-4,38
220,143	-3,47
220,521	-1,82
220,899	-1,78
221,277	-1,68
221,655	-0,46
222,033	0,56
222,411	2,51
222,789	4,31
223,167	2,73
223,545	3,52
223,923	3,67
224,301	3,2
224,678	3,41
225,056	3,79
225,434	3,92
225,811	4,1
226,189	3,05
226,566	1,7
226,944	1,01
227,321	0,18
227,699	2,47
228,076	2,23
228,454	4,34
228,831	4,3
229,208	3,91
229,586	2,58
229,963	1,73
230,34	4,23
230,717	6,22
231,094	3,74
231,471	4,26
231,848	1,91
232,225	0,15
232,602	-0,64
232,979	-1,95
233,356	-2,78
233,733	-1,52
234,11	-0,73
234,487	-1,85
234,864	-2,75
235,24	-2,32
235,617	-2,54
235,994	-2,6
236,37	-1,52
236,747	-2,27
237,124	-1,4
237,5	-2,01
237,877	-3,14
238,253	-3,42
238,63	-3,15
239,006	-0,82
239,382	2,54
239,759	4,79
240,135	4,52
240,511	5,2
240,887	3,86
241,264	4,01
241,64	4
242,016	6,37
242,392	6,61
242,768	7,41
243,144	4,25
243,52	0,21
243,896	0,34
244,272	0,81
244,648	1,22
245,023	2,96
245,399	3,65
245,775	5,32
246,151	6,03
246,526	5,87
246,902	3,45
247,278	1,56
247,653	2,51
248,029	1,67
248,404	3,26
248,78	2,85
249,155	1,42
249,53	0,68
249,906	1,99
250,281	2,73
250,656	3,88
251,032	6,29
251,407	9,57
251,782	12,9
252,157	12,05
252,532	11,49
252,907	11,74
253,282	12,31
253,657	13,02
254,032	12,09
254,407	10,01
254,782	8,03
255,157	8
255,532	8,32
255,907	6,69
256,281	8,08
256,656	7,89
257,031	8,92
257,405	8,9
257,78	7,61
258,155	8,16
258,529	8,5
258,904	8,44
259,278	7,5
259,652	5,31
260,027	6,19
260,401	6,79
260,775	7,56
261,15	6,82
261,524	7,6
261,898	8,17
262,272	7,04
262,646	5,33
263,021	5,87
263,395	7,56
263,769	7,09
264,143	6,49
264,517	3,47
264,89	1,64
265,264	-0,01
265,638	0,3
266,012	-0,38
266,386	-0,81
266,76	0,15
267,133	0,79
267,507	-1,97
267,88	-1,76
268,254	-2,26
268,628	-1,4
269,001	-1,04
269,375	-0,11
269,748	-0,17
270,121	0,64
270,495	2,33
270,868	2,5
271,241	1,89
271,615	1,42
271,988	2,21
272,361	2,16
272,734	2,48
273,107	4,21
273,48	2,59
273,853	0,49
274,226	-0,44
274,599	-3,42
274,972	-2,06
275,345	-1,26
275,718	0,29
276,091	-0,48
276,464	-0,25
276,836	-1,11
277,209	-1,14
277,582	-1,05
277,954	1,97
278,327	0,98
278,7	4,29
279,072	2,84
279,445	1,37
279,817	1,57
280,189	1,36
280,562	1,96
280,934	2,8
281,306	1,75
281,679	2,61
282,051	2,88
282,423	4,09
282,795	4,05
283,167	5,76
283,539	7,86
283,911	6,66
284,283	6,36
284,655	7,61
285,027	8,92
285,399	9,2
285,771	10,46
286,143	8,08
286,515	8,22
286,886	6,55
287,258	3,82
287,63	3,7
288,001	3,72
288,373	5,16
288,745	1,64
289,116	-0,39
289,488	-2,82
289,859	-5,18
290,23	-6,67
290,602	-7,05
290,973	-8,18
291,344	-4,92
291,716	-6,25
292,087	-3,69
292,458	-4,31
292,829	-3,64
293,2	-3,11
293,571	-2,62
293,942	-1,1
294,313	1,03
294,684	1,71
295,055	2,74
295,426	1,78
295,797	2,09
296,168	0,57
296,539	0,07
296,909	2,87
297,28	2,67
297,651	4,84
298,021	5,2
298,392	5,06
298,763	4,18
299,133	4,58
299,503	1,95
299,874	0,3
300,244	-0,22
300,615	-1,25
300,985	-4,39
301,355	-2,44
301,726	-3,26
302,096	-5,52
302,466	-5,09
302,836	-4,56
303,206	-3,98
303,576	-1,68
303,946	1,54
304,316	1,75
304,686	4,06
305,056	5,43
305,426	3,58
305,796	3,44
306,166	5,23
306,535	3,37
306,905	3,24
307,275	1,41
307,644	2,02
308,014	1,15
308,383	0,76
308,753	-1,11
309,122	-2,51
309,492	-2,83
309,861	-0,87
310,231	-2,44
310,6	-1,66
310,969	-2,46
311,339	-0,71
311,708	-2,62
312,077	-4,03
312,446	-2,2
312,815	-2,42
313,184	-1,41
313,553	-1,79
313,922	-2,05
314,291	-0,56
314,66	1,15
315,029	1,74
315,398	0,09
315,767	0,48
316,136	-0,9
316,504	-2
316,873	-0,89
317,242	-1,33
317,61	-0,81
317,979	-1,51
318,347	-2,43
318,716	-4,97
319,084	-4,44
319,453	-2,93
319,821	-3,61
320,189	0,69
320,558	0,23
320,926	0,24
321,294	0,79
321,662	0,67
322,031	0,79
322,399	2,39
322,767	4,42
323,135	4,48
323,503	4,11
323,871	5,85
324,239	4,48
324,607	3,9
324,974	6,08
325,342	7,11
325,71	7,03
326,078	6,5
326,445	7,17
326,813	5,41
327,181	3,57
327,548	2,74
327,916	2,81
328,283	0,51
328,651	0,28
329,018	-2,84
329,385	-2,16
329,753	-0,43
330,12	-1,04
330,487	-2,36
330,855	-1,77
331,222	-2,71
331,589	-2,85
331,956	-2,46
332,323	-2,72
332,69	-1,19
333,057	0,8
333,424	-2,81
333,791	-3,49
334,158	-4,64
334,525	-5,69
334,892	-4,12
335,258	-4,6
335,625	-1,47
335,992	-2,52
336,358	-2,18
336,725	-2,51
337,091	-4,46
337,458	-0,98
337,824	-1,24
338,191	-2,8
338,557	-1,02
338,924	-3,18
339,29	0,91
339,656	-0,13
340,023	-2,5
340,389	-0,88
340,755	-1,54
341,121	0
341,487	-2,43
341,853	-1,01
342,219	2,76
342,585	0,91
342,951	2,03
343,317	3,02
343,683	1,45
344,049	2,85
344,415	2,37
344,78	1,49
345,146	3,28
345,512	4,06
345,877	3,09
346,243	2,85
346,608	4,36
346,974	4,65
347,339	2,11
347,705	1,79
348,07	0,02
348,436	2,82
348,801	6
349,166	2,61
349,531	3,93
349,897	4,87
350,262	4,1
350,627	3,6
350,992	4,21
351,357	5,3
351,722	4,88
352,087	8,38
352,452	4,79
352,817	1,49
353,181	2,61
353,546	0,59
353,911	-1,67
354,276	-1,01
354,64	0,05
355,005	0,51
355,37	-0,9
355,734	-0,22
356,099	-0,67
356,463	-0,23
356,828	1,79
357,192	2,12
357,556	2,54
357,921	3,46
358,285	2,9
358,649	2,73
359,013	3,06
359,378	3,54
359,742	4,19
360,106	4,1
360,47	5,55
360,834	5,7
361,198	5,3
361,562	5,81
361,926	6,43
362,289	7,78
362,653	7,82
363,017	4,8
363,381	4,72
363,744	5,11
364,108	6,69
364,472	5,04
364,835	4,19
365,199	4,7
365,562	4,33
365,926	1,77
366,289	-0,29
366,652	-0,81
367,016	1,6
367,379	3,88
367,742	5,51
368,105	3,55
368,469	3,47
368,832	4
369,195	3,49
369,558	1,95
369,921	2,6
370,284	2,63
370,647	2,09
371,01	2,63
371,372	0,39
371,735	-2,47
372,098	-4,03
372,461	-5,29
372,823	-3,96
373,186	-3,1
373,549	-2,65
373,911	-0,19
374,274	-0,68
374,636	-0,84
374,999	-3,37
375,361	-2,74
375,723	-2,69
376,086	-0,54
376,448	-0,17
376,81	-2,69
377,172	-3,64
377,535	-1,42
377,897	-4,12
378,259	-2,76
378,621	-3,39
378,983	-3,19
379,345	-1,21
379,707	-1,23
380,068	-0,54
380,43	0,42
380,792	2,26
381,154	1,88
381,516	0,71
381,877	1,64
382,239	2,67
382,6	2,95
382,962	4,72
383,323	0,98
383,685	1,99
384,046	-1,27
384,408	0,87
384,769	-0,09
385,13	2,34
385,492	2,34
385,853	1,49
386,214	0,87
386,575	0,34
386,936	-3,51
387,297	-2,51
387,658	-1,84
388,019	2,12
388,38	1,89
388,741	1,71
389,102	0,98
389,463	2,47
389,823	4,85
390,184	4,91
390,545	7,77
390,906	8,68
391,266	9,37
391,627	7,6
391,987	8,01
392,348	8,42
392,708	10,55
393,069	9,88
393,429	8,07
393,789	8,51
394,15	8,33
394,51	7,05
394,87	9,06
395,23	9,5
395,59	8,83
395,95	6,87
396,31	5,15
396,67	3,63
397,03	5,29
397,39	7,76
397,75	6,19
398,11	5,79
398,47	4,59
398,829	4,53
399,189	2,8
399,549	7,01
399,908	7,89
400,268	7,32
400,627	7,25
400,987	3,87
401,346	2,07
401,706	7,09
402,065	12,86
402,424	25,39
402,784	61,78
403,143	160,15
403,502	365,65
403,861	628,77
404,221	832,06
404,58	957,63
404,939	1031,35
405,298	1065,25
405,657	1074,92
406,015	1073,96
406,374	1065,8
406,733	1029,99
407,092	934,51
407,451	727,88
407,809	464,29
408,168	261,58
408,527	137,29
408,885	65,67
409,244	32,85
409,602	18,19
409,961	14,33
410,319	12,15
410,678	10,71
411,036	8,47
411,394	5,83
411,752	4,42
412,111	6,05
412,469	3,57
412,827	2,11
413,185	1,23
413,543	1,64
413,901	2,18
414,259	-0,12
414,617	3,03
414,975	3,66
415,333	4,72
415,69	5,44
416,048	4,4
416,406	5,32
416,763	6,46
417,121	7,34
417,479	9,21
417,836	8,93
418,194	10,1
418,551	7,5
418,909	7,24
419,266	7,95
419,623	10,14
419,981	10,53
420,338	11,28
420,695	13,88
421,052	14,68
421,409	14,88
421,766	14,67
422,123	12,33
422,48	12,86
422,837	14,27
423,194	15,4
423,551	13,75
423,908	13,07
424,265	13,86
424,621	12,28
424,978	11,24
425,335	9,55
425,691	10,43
426,048	14,76
426,404	16,55
426,761	17,75
427,117	17,02
427,474	18,57
427,83	19,37
428,186	17,96
428,543	19,2
428,899	19,63
429,255	20,71
429,611	23,37
429,967	24,01
430,323	24,67
430,679	24,2
431,035	25,68
431,391	25,71
431,747	28,51
432,103	31,29
432,459	31,82
432,815	34,55
433,17	33,57
433,526	30,97
433,882	30,23
434,237	29,35
434,593	28,6
434,948	27,68
435,304	27,74
435,659	25,82
436,014	24,48
436,37	25,93
436,725	23,34
437,08	25,21
437,436	27,64
437,791	27,04
438,146	25,6
438,501	25,07
438,856	23,5
439,211	24,09
439,566	24,03
439,921	24,65
440,276	22,37
440,63	23,46
440,985	23,85
441,34	22,78
441,695	23,42
442,049	24,07
442,404	24,87
442,758	29,05
443,113	29,67
443,467	32,21
443,822	31,75
444,176	31,02
444,531	33,24
444,885	31,01
445,239	31,12
445,593	31,29
445,948	33,26
446,302	34,36
446,656	33,64
447,01	32,86
447,364	32,54
447,718	34,39
448,072	35,63
448,426	37,28
448,779	39,9
449,133	38,93
449,487	40,53
449,841	40,07
450,194	38,81
450,548	39,97
450,902	43,42
451,255	43,08
451,609	43,44
451,962	44,59
452,315	41,86
452,669	42,33
453,022	46,14
453,375	43,6
453,729	44,32
454,082	48,76
454,435	49,03
454,788	47,5
455,141	48,57
455,494	49,73
455,847	50,2
456,2	52,86
456,553	52,81
456,906	50,34
457,258	53,3
457,611	53,34
457,964	51,26
458,316	50,93
458,669	50,3
459,022	50,25
459,374	48,77
459,727	51,5
460,079	49,33
460,432	50,4
460,784	51,53
461,136	50,36
461,488	50,45
461,841	49,72
462,193	50,09
462,545	51,63
462,897	53,32
463,249	55,15
463,601	53,67
463,953	56,47
464,305	58,59
464,657	57,72
465,009	58,69
465,361	59,66
465,712	61,45
466,064	63,4
466,416	62,63
466,767	62,04
467,119	61,47
467,47	61,31
467,822	59,3
468,173	57,41
468,525	60,05
468,876	61,81
469,227	64,91
469,579	67,29
469,93	65,11
470,281	65,85
470,632	67,82
470,983	67,6
471,334	69,64
471,685	72,21
472,036	72,96
472,387	73,31
472,738	75,07
473,089	73,73
473,44	70,74
473,79	71,19
474,141	72,2
474,492	71,77
474,842	73,81
475,193	73,68
475,543	74,68
475,894	75,3
476,244	75,36
476,595	72,74
476,945	72,52
477,295	76,02
477,645	77,21
477,996	81,23
478,346	80,67
478,696	81,9
479,046	82,63
479,396	82,12
479,746	85,48
480,096	85,3
480,446	86,72
480,796	91,2
481,145	92,26
481,495	93
481,845	90,35
482,195	89,21
482,544	92,85
482,894	93,77
483,243	93,72
483,593	90,14
483,942	91,46
484,292	91,78
484,641	89,4
484,99	87,55
485,34	89,26
485,689	89,15
486,038	95,33
486,387	92,42
486,736	90,98
487,085	92,54
487,434	96,07
487,783	96,38
488,132	99,39
488,481	99,98
488,83	101,46
489,179	102,83
489,527	106,07
489,876	105,39
490,225	107,28
490,573	110,08
490,922	111,7
491,27	112,39
491,619	115,02
491,967	116,88
492,316	121,76
492,664	124,73
493,012	126,81
493,361	126,6
493,709	126,57
494,057	126,85
494,405	129,45
494,753	132,6
495,101	134,58
495,449	136,72
495,797	141,58
496,145	144,93
496,493	148,88
496,84	150,92
497,188	156,53
497,536	163,17
497,884	169,69
498,231	174,06
498,579	177,75
498,926	183,48
499,274	190,27
499,621	193,96
499,969	198,03
500,316	208,29
500,663	216,33
501,01	224,58
501,358	234,12
501,705	243,82
502,052	254,42
502,399	268,73
502,746	284,28
503,093	296,02
503,44	312,13
503,787	329,08
504,134	344,99
504,481	363,69
504,827	383,64
505,174	401,49
505,521	424,48
505,867	447,78
506,214	472,44
506,56	496,23
506,907	527,9
507,253	557,43
507,6	588,63
507,946	618,54
508,292	652,99
508,639	687,98
508,985	729,63
509,331	768,21
509,677	812,02
510,023	854,39
510,369	902
510,715	948,42
511,061	996,88
511,407	1047,77
511,753	1099,67
512,099	1153,02
512,444	1208,39
512,79	1260,04
513,136	1315,95
513,481	1370,76
513,827	1428,38
514,172	1483,68
514,518	1538,52
514,863	1593,03
515,209	1643,54
515,554	1695,35
515,899	1743,51
516,245	1790,79
516,59	1836,4
516,935	1880,7
517,28	1921,46
517,625	1955,5
517,97	1989,25
518,315	2016,7
518,66	2039,4
519,005	2061,54
519,35	2076,43
519,695	2089,84
520,039	2098
520,384	2102,92
520,729	2101,47
521,073	2099,04
521,418	2091,53
521,762	2078,88
522,107	2065,47
522,451	2047,16
522,796	2025,55
523,14	2005,66
523,484	1983,4
523,829	1956,89
524,173	1929,46
524,517	1900,94
524,861	1868,87
525,205	1838,56
525,549	1803,88
525,893	1770,03
526,237	1740,52
526,581	1708,35
526,925	1671,86
527,269	1639,05
527,612	1604,72
527,956	1572,93
528,3	1541,28
528,643	1507,91
528,987	1474,82
529,33	1448,65
529,674	1420,22
530,017	1392,8
530,36	1367,97
530,704	1343,69
531,047	1318,89
531,39	1298,45
531,733	1275,05
532,077	1247,67
532,42	1227,11
532,763	1204,66
533,106	1179,81
533,449	1158,11
533,792	1137,21
534,134	1116,31
534,477	1099,66
534,82	1078,84
535,163	1059,24
535,505	1039,61
535,848	1029,56
536,191	1011,58
536,533	1000,81
536,876	988,84
537,218	978,25
537,56	964,48
537,903	952,49
538,245	940,08
538,587	927,6
538,93	916,24
539,272	905,3
539,614	892,25
539,956	883,83
540,298	872,12
540,64	865,6
540,982	855,99
541,324	847,97
541,666	837,69
542,007	831,63
542,349	827,44
542,691	820,04
543,032	814,45
543,374	809,06
543,716	804,88
544,057	802,21
544,398	796,87
544,74	790,71
545,081	786,4
545,423	784,31
545,764	778,54
546,105	776,47
546,446	774,74
546,787	773,97
547,128	770,2
547,469	767,76
547,81	765,03
548,151	762,49
548,492	763,55
548,833	762,24
549,174	767,58
549,515	768,54
549,855	769,58
550,196	771,56
550,537	775,99
550,877	781,56
551,218	787,3
551,558	789,56
551,899	793,35
552,239	798,27
552,579	804,47
552,92	804,83
553,26	810,83
553,6	813,64
553,94	818,93
554,28	824,23
554,62	831,62
554,96	836,76
555,3	847,43
555,64	857,49
555,98	867,74
556,32	879,74
556,66	891,35
556,999	904,64
557,339	918,73
557,679	934,82
558,018	949,78
558,358	964,02
558,697	980,88
559,037	1000,43
559,376	1018,16
559,715	1038,22
560,055	1058,88
560,394	1083,11
560,733	1107,69
561,072	1135,94
561,411	1163,82
561,75	1194,66
562,089	1230,5
562,428	1269,48
562,767	1307,54
563,106	1351,08
563,445	1396,4
563,784	1445,57
564,122	1498,4
564,461	1553,32
564,8	1611,25
565,138	1674,53
565,477	1739,73
565,815	1808,48
566,154	1884,99
566,492	1963,1
566,83	2046,35
567,169	2132,45
567,507	2231,16
567,845	2330,6
568,183	2438,72
568,521	2552,34
568,859	2670,78
569,197	2800,69
569,535	2937,02
569,873	3076,23
570,211	3225,61
570,549	3382,75
570,887	3547,67
571,224	3708,29
571,562	3885,98
571,9	4069,73
572,237	4258,43
572,575	4458,33
572,912	4659,16
573,25	4866,39
573,587	5079,41
573,924	5300,85
574,262	5527,57
574,599	5758,07
574,936	6000,32
575,273	6237,69
575,61	6482,44
575,947	6725,82
576,284	6971,87
576,621	7215,38
576,958	7465,26
577,295	7710,73
577,632	7958,83
577,969	8194,19
578,305	8432,91
578,642	8652,31
578,979	8876,1
579,315	9090,33
579,652	9290,39
579,988	9486,01
580,325	9670,1
580,661	9833,47
580,997	9975,55
581,334	10104,9
581,67	10227,33
582,006	10324,64
582,342	10417,66
582,678	10475,09
583,014	10519,6
583,35	10556,95
583,686	10571,07
584,022	10570,15
584,358	10549,47
584,694	10529,21
585,029	10478,91
585,365	10415,74
585,701	10338,88
586,036	10242,58
586,372	10146,78
586,707	10031,54
587,043	9904,25
587,378	9762,56
587,714	9617,88
588,049	9464,35
588,384	9300,22
588,719	9132,74
589,054	8957,45
589,39	8782,16
589,725	8603,16
590,06	8419,71
590,395	8230,94
590,729	8048,61
591,064	7862,57
591,399	7676,04
591,734	7492,89
592,069	7306,02
592,403	7126,43
592,738	6951,88
593,073	6775,42
593,407	6605,86
593,742	6439,45
594,076	6277,15
594,41	6113,09
594,745	5955,24
595,079	5799,21
595,413	5651,16
595,747	5509,61
596,081	5372,73
596,416	5234,82
596,75	5104,18
597,084	4977,72
597,418	4853,89
597,751	4736,45
598,085	4623,96
598,419	4517,58
598,753	4413,25
599,086	4315,52
599,42	4217,77
599,754	4123,07
600,087	4032,83
600,421	3943,4
600,754	3859,48
601,088	3778,74
601,421	3704,16
601,754	3629,9
602,088	3557,57
602,421	3489,28
602,754	3417,3
603,087	3352,51
603,42	3285,04
603,753	3224,66
604,086	3170,25
604,419	3116,03
604,752	3064,06
605,085	3009,64
605,417	2956,95
605,75	2910,08
606,083	2863,38
606,415	2820,22
606,748	2777,45
607,08	2740,78
607,413	2700,92
607,745	2663,43
608,078	2626,87
608,41	2589,87
608,742	2554,92
609,074	2525,85
609,407	2495,4
609,739	2464,29
610,071	2432,47
610,403	2403,99
610,735	2374,81
611,067	2347,61
611,399	2322,59
611,73	2297,48
612,062	2273,75
612,394	2251,99
612,726	2231,9
613,057	2212,48
613,389	2197,55
613,72	2183,49
614,052	2165,95
614,383	2151,48
614,715	2140,68
615,046	2124,64
615,377	2115,2
615,708	2106,79
616,04	2102,33
616,371	2094,82
616,702	2082,98
617,033	2075,68
617,364	2070,08
617,695	2068,73
618,026	2068,98
618,356	2066,01
618,687	2071,87
619,018	2071,88
619,349	2076,05
619,679	2079,89
620,01	2081,71
620,34	2089,38
620,671	2093,22
621,001	2097,58
621,332	2104,7
621,662	2107,47
621,992	2115,05
622,322	2117,97
622,653	2126,23
622,983	2132,35
623,313	2136,85
623,643	2143,48
623,973	2151,06
624,303	2159,1
624,633	2167,24
624,962	2172,87
625,292	2179,23
625,622	2184,37
625,952	2192,49
626,281	2199,27
626,611	2207,11
626,94	2213,57
627,27	2221,35
627,599	2226,11
627,929	2231,93
628,258	2237,45
628,587	2241,13
628,916	2246,52
629,246	2251,66
629,575	2254,31
629,904	2251,29
630,233	2250,12
630,562	2252,52
630,891	2249,59
631,22	2249,32
631,548	2246,08
631,877	2245,8
632,206	2248,64
632,535	2246,53
632,863	2243,02
633,192	2239,56
633,52	2239,04
633,849	2233,93
634,177	2225,09
634,506	2219,91
634,834	2212,58
635,162	2207,56
635,49	2197,55
635,819	2181,28
636,147	2167,22
636,475	2151,09
636,803	2136,2
637,131	2119,09
637,459	2099,92
637,787	2080,54
638,114	2060,02
638,442	2039,74
638,77	2017,74
639,098	1996,51
639,425	1977,05
639,753	1955,77
640,08	1935
640,408	1910,45
640,735	1886,91
641,062	1863,84
641,39	1839,31
641,717	1814,61
642,044	1784,43
642,371	1758,88
642,699	1730,53
643,026	1698,93
643,353	1670,35
643,68	1643,65
644,006	1612,86
644,333	1580,82
644,66	1552,33
644,987	1522,14
645,314	1494,46
645,64	1467,01
645,967	1434,75
646,293	1405,48
646,62	1379,69
646,946	1352,63
647,273	1319,42
647,599	1294,97
647,925	1269,52
648,252	1241,96
648,578	1217,07
648,904	1189,26
649,23	1163,99
649,556	1138,52
649,882	1111,92
650,208	1089,93
650,534	1066,18
650,86	1047,8
651,185	1023,45
651,511	1003,44
651,837	982,13
652,162	963,46
652,488	944,43
652,814	921,87
653,139	903,31
653,464	886,76
653,79	866,67
654,115	846,77
654,44	827,43
654,766	809,57
655,091	790,77
655,416	771,86
655,741	752,4
656,066	738,23
656,391	728,81
656,716	715,21
657,041	702,03
657,366	686,47
657,69	674,98
658,015	662,26
658,34	649,77
658,664	639,34
658,989	630,58
659,313	621,41
659,638	608,66
659,962	595,29
660,286	582,77
660,611	571,55
660,935	563,42
661,259	551,33
661,583	541,61
661,907	531,52
662,231	521,21
662,555	512,35
662,879	502,27
663,203	493,38
663,527	485,22
663,851	478,45
664,175	470,16
664,498	463,97
664,822	456,95
665,145	450,39
665,469	445,34
665,792	438,96
666,116	431,27
666,439	426,18
666,763	418,31
667,086	412,14
667,409	405,08
667,732	399,29
668,055	391,05
668,378	386,92
668,701	380,94
669,024	377,24
669,347	372,15
669,67	366,17
669,993	359,87
670,316	354,96
670,638	350,12
670,961	344,78
671,283	341,27
671,606	337
671,928	331,52
672,251	327,05
672,573	320,96
672,896	316,8
673,218	313,05
673,54	311,73
673,862	310,01
674,184	306,97
674,506	304,16
674,828	299,56
675,15	297,1
675,472	294
675,794	291,59
676,116	287,27
676,438	281,86
676,759	280,21
677,081	276,26
677,403	272,42
677,724	269,54
678,046	267,34
678,367	265,04
678,689	260,31
679,01	258,23
679,331	254,25
679,652	255,03
679,974	253,88
680,295	252,19
680,616	248,6
680,937	249,05
681,258	247,49
681,579	246,86
681,9	244,98
682,22	243,87
682,541	241,09
682,862	238,7
683,183	237,19
683,503	234,86
683,824	231,59
684,144	229,1
684,465	225,5
684,785	223,44
685,105	218,97
685,426	217,11
685,746	218,07
686,066	218,09
686,386	216,88
686,706	213,84
687,026	213,99
687,346	212,42
687,666	210,53
687,986	211,01
688,306	210,54
688,626	210,16
688,945	208,06
689,265	204,72
689,585	204,58
689,904	203,54
690,224	202,56
690,543	202,52
690,862	202,09
691,182	199,46
691,501	196,95
691,82	193,28
692,139	190,22
692,459	186,97
692,778	187,7
693,097	182,63
693,416	181,83
693,735	179,8
694,053	173,54
694,372	170,98
694,691	171,8
695,01	170,14
695,328	167,76
695,647	166,13
695,966	166,87
696,284	159,9
696,602	158,98
696,921	158,07
697,239	153,61
697,557	155,09
697,876	150,38
698,194	147,58
698,512	144,31
698,83	144,93
699,148	144,65
699,466	144,71
699,784	146
700,102	143,11
700,42	140,04
700,737	137,4
701,055	135,57
701,373	138,42
701,69	138,09
702,008	134,51
702,325	131,66
702,643	131,44
702,96	126,9
703,277	123,43
703,595	122,37
703,912	121,72
704,229	118,22
704,546	117,85
704,863	115,3
705,18	111,94
705,497	112,52
705,814	109,97
706,131	104,32
706,448	103,55
706,764	103,38
707,081	102,04
707,398	100,05
707,714	102,29
708,031	97,57
708,347	95,77
708,664	96,06
708,98	93,24
709,296	92,15
709,613	92,24
709,929	89,88
710,245	88,04
710,561	85,56
710,877	83,53
711,193	81,9
711,509	80,56
711,825	80,33
712,141	78,87
712,457	78,62
712,772	76,51
713,088	75,62
713,403	73,99
713,719	73,24
714,035	71,12
714,35	69,36
714,665	69,25
714,981	69,22
715,296	65,22
715,611	64,46
715,926	63,04
716,242	61,95
716,557	62,93
716,872	65,3
717,187	63,69
717,502	63,2
717,816	63,36
718,131	61,8
718,446	61,47
718,761	62,95
719,075	61,7
719,39	62,25
719,704	62,27
720,019	60,01
720,333	57,23
720,648	56,44
720,962	55,07
721,276	51,27
721,59	48,21
721,905	46,75
722,219	44,51
722,533	41,72
722,847	37,19
723,161	33,58
723,475	32,9
723,788	29,11
724,102	27,32
724,416	29,46
724,73	30,97
725,043	33,19
725,357	32,42
725,67	30,5
725,984	31,43
726,297	33,57
726,61	37,1
726,924	35,07
727,237	34,18
727,55	33,32
727,863	29,45
728,176	30,07
728,489	29,56
728,802	30,71
729,115	31,36
729,428	30,27
729,741	27,45
730,054	24,72
730,366	24,39
730,679	28,37
730,992	30,15
731,304	33,18
731,617	30,61
731,929	29,1
732,241	26,74
732,554	26,11
732,866	26,03
733,178	26,56
733,49	27,27
733,802	28,86
734,114	24,93
734,426	23,49
734,738	22,05
735,05	21,78
735,362	19,86
735,674	19,43
735,985	18,72
736,297	19,15
736,609	21,12
736,92	21,73
737,232	21,23
737,543	21,65
737,854	21,86
738,166	19,95
738,477	21,17
738,788	22,49
739,099	22,59
739,411	21,53
739,722	19,59
740,033	19,04
740,344	17,37
740,654	15,95
740,965	18,13
741,276	16,41
741,587	17,04
741,897	16,64
742,208	15,32
742,519	7,42
742,829	7,39
743,14	6,51
743,45	4,86
743,76	3,36
744,071	2,9
744,381	0,83
744,691	-0,16
745,001	2,35
745,311	0,17
745,621	3,58
745,931	10,27
746,241	11,68
746,551	13,6
746,861	12,7
747,17	13,55
747,48	12,7
747,79	13,41
748,099	15,61
748,409	13,09
748,718	17,48
749,027	13,46
749,337	13,83
749,646	12,43
749,955	10,76
750,265	11,2
750,574	11,57
750,883	11,95
751,192	10,55
751,501	10
751,81	12,96
752,118	8,4
752,427	7,11
752,736	8,5
753,045	9,85
753,353	9,37
753,662	10,51
753,97	9,57
754,279	10,66
754,587	11,56
754,896	11,38
755,204	7,4
755,512	8,41
755,82	12,17
756,128	9,87
756,436	8,89
756,744	10,44
757,052	10,98
757,36	11,18
757,668	11,71
757,976	12,76
758,284	12,37
758,591	12,69
758,899	12,56
759,207	11,18
759,514	11,49
759,821	12,38
760,129	10,95
760,436	9,57
760,744	9,16
761,051	6,98
761,358	5,85
761,665	7,72
761,972	8,8
762,279	9,69
762,586	11,47
762,893	12,68
763,2	11,28
763,507	13,22
763,813	13,05
764,12	12,2
764,427	12,8
764,733	11,19
765,04	10,89
765,346	9,91
765,653	10,34
765,959	7,85
766,265	5,52
766,571	7,43
766,878	4,73
767,184	3,9
767,49	5,33
767,796	4,38
768,102	6,87
768,408	3,62
768,713	3,51
769,019	1,56
769,325	2,55
769,631	3,28
769,936	-0,4
770,242	-1,05
770,547	-0,88
770,853	0,23
771,158	1,12
771,463	-0,8
771,769	0,32
772,074	0,92
772,379	1,92
772,684	-0,76
772,989	-1,57
773,294	-0,4
773,599	-0,7
773,904	-1,12
774,209	-3,21
774,514	-5,29
774,818	-5,36
775,123	-4,74
775,428	-5,38
775,732	-6,95
776,037	-6,64
776,341	-5,16
776,645	-3,36
776,95	-1,78
777,254	-0,86
777,558	0,03
777,862	1,97
778,166	2,26
778,47	1,37
778,774	1,41
779,078	3,29
779,382	5,16
779,686	5,58
779,99	4,62
780,293	3,16
780,597	4,64
780,901	5,91
781,204	5,02
781,508	5,93
781,811	7,73
782,114	8,49
782,418	5,14
782,721	6,04
783,024	4,45
783,327	4,09
783,63	7,56
783,933	5,82
784,236	4,62
784,539	5,38
784,842	2,09
785,145	2,2
785,447	1,31
785,75	2,75
786,053	1,99
786,355	1,94
786,658	3,48
786,96	3,27
787,263	2,26
787,565	1,88
787,867	1,48
788,169	4,95
788,472	3,67
788,774	3,7
789,076	3,61
789,378	4
789,68	5,05
789,982	4,11
790,283	1,87
790,585	2,55
790,887	2,95
791,188	3,97
791,49	1,69
791,792	1,31
792,093	2,34
792,394	3,22
792,696	1,09
792,997	-0,37
793,298	-0,38
793,6	0,28
793,901	0,58
794,202	0,67
794,503	0,24
794,804	0,7
795,105	0,3
795,405	-0,81
795,706	-1,41
796,007	1,01
796,308	2,66
796,608	3,18
796,909	1,57
797,209	1,08
797,51	-0,35
797,81	-1,22
798,11	-0,65
798,411	1,26
798,711	1,37
799,011	1,47
799,311	1,94
799,611	4,21
799,911	3,08
800,211	3,01
800,511	5,38
800,811	7,11
801,111	8,53
801,41	8,32
801,71	5,04
802,009	4,9
802,309	5,15
802,608	2,88
802,908	0,71
803,207	0,26
803,507	2,67
803,806	0,19
804,105	0,5
804,404	-1,39
804,703	-0,49
805,002	1,34
805,301	3,25
805,6	4,69
805,899	4,66
806,198	3,12
806,496	6,15
806,795	5,52
807,094	7,58
807,392	5,92
807,691	8,1
807,989	6,82
808,287	8,4
808,586	7,11
808,884	6,15
809,182	6,76
809,48	7,52
809,778	5,28
810,076	6,51
810,374	4,2
810,672	4,19
810,97	3,37
811,268	4,63
811,566	4,03
811,863	3,86
812,161	2,05
812,458	2,06
812,756	2,2
813,053	1,52
813,351	-1
813,648	0,78
813,945	1,99
814,242	2,35
814,54	2,06
814,837	-2,51
815,134	-0,87
815,431	2,7
815,728	0,64
816,025	-0,48
816,321	-2,05
816,618	0,02
816,915	-3,46
817,211	-3,75
817,508	-4,34
817,804	-5,45
818,101	-2,96
818,397	-4,13
818,694	-7,69
818,99	-5,4
819,286	-3,1
819,582	-1,22
819,878	-2,25
820,174	1,59
820,47	2,43
820,766	1,65
821,062	1,71
821,358	2,18
821,654	-0,36
821,949	1,45
822,245	0,99
822,541	-0,64
822,836	-0,18
823,132	-0,13
823,427	-3,4
823,722	-6,1
824,018	-4,72
824,313	-3,89
824,608	-2,36
824,903	2,23
825,198	1,73
825,493	1,33
825,788	1,16
826,083	1,87
826,378	1,3
826,672	1,68
826,967	4
827,262	3,18
827,556	1,51
827,851	0,98
828,145	-1,99
828,44	-3,67
828,734	-2,26
829,028	-2,36
829,323	-3,54
829,617	-3,68
829,911	0,14
830,205	-0,69
830,499	1,19
830,793	0,24
831,087	-0,3
831,381	-0,18
831,674	4,11
831,968	3,28
832,262	3,18
832,555	2,59
832,849	5,59
833,142	3,76
833,436	5,74
833,729	4,22
834,022	5,8
834,315	5,82
834,609	6,67
834,902	3,2
835,195	3,23
835,488	2,94
835,781	2,2
836,074	-2,29
836,366	-3,23
836,659	-4,82
836,952	-6,22
837,244	-5,58
837,537	-4,92
837,829	-3,96
838,122	-3,24
838,414	-2,29
838,707	-0,39
838,999	2,13
839,291	3,29
839,583	2,35
839,875	2,75
840,167	3,57
840,459	2,32
840,751	1,75
841,043	-2,41
841,335	-2,49
841,627	-3,79
841,918	-7,11
842,21	-8,05
842,502	-7,13
842,793	-5,91
843,085	-6,65
843,376	-5,17
843,667	-2,11
843,959	-1,74
844,25	0,98
844,541	0,77
844,832	-0,09
845,123	2,26
845,414	2,45
845,705	2,38
845,996	3,36
846,287	1,58
846,577	-0,83
846,868	-3,17
847,159	-3,99
847,449	-3,8
847,74	-4,02
848,03	-4,4
848,32	-6,87
848,611	-6,76
848,901	-7,92
849,191	-7,56
849,481	-4,21
849,771	-2,46
850,061	-2,76
850,351	-0,86
850,641	-1,98
850,931	-1,74
851,221	-2,27
851,511	0,68
851,8	0,64
852,09	1,69
852,379	1,01
852,669	-1,96
852,958	-1,54
853,248	-2,28
853,537	-4,3
853,826	-3,57
854,115	-3,44
854,404	-2,38
854,693	-1,93
854,982	-4,55
855,271	-5,69
855,56	-6,42
855,849	-5,03
856,138	-6,44
856,427	-5,6
856,715	-3,18
857,004	-2,75
857,292	-2,6
857,581	-3,14
857,869	-4,43
858,157	-3,07
858,446	-0,83
858,734	-1,66
859,022	-1,73
859,31	-0,15
859,598	0,88
859,886	-3,18
860,174	-3,27
860,462	-0,17
860,75	1,05
861,037	0,76
861,325	1,53
861,613	0,24
861,9	1,55
862,188	1,62
862,475	3,35
862,763	1,74
863,05	3,67
863,337	3,33
863,624	-0,98
863,911	-2,59
864,199	-1,33
864,486	0,69
864,772	1,62
865,059	1,44
865,346	4,74
865,633	2,6
865,92	3,02
866,206	3,22
866,493	4,18
866,779	6,73
867,066	8,05
867,352	7,82
867,639	6,3
867,925	6,7
868,211	6,79
868,497	2
868,783	0,7
869,069	1,51
869,355	0,7
869,641	-0,45
869,927	-2,52
870,213	-1,25
870,499	-1,77
870,784	-3
871,07	-4,58
871,356	-3,13
871,641	-1,94
871,926	-1,65
872,212	-2,22
872,497	-3,03
872,782	-1,54
873,068	0,07
873,353	-0,8
873,638	-0,6
873,923	0,95
874,208	1,85
874,493	-0,5
874,777	-0,43
875,062	-1,93
875,347	-1,25
875,632	0,83
875,916	0,48
876,201	-2,2
876,485	-1,25
876,77	-1,75
877,054	0,25
877,338	-0,8
877,622	-0,66
877,906	2,75
878,191	7,86
878,475	11,1
878,759	11,69
879,042	11,66
879,326	16,16
879,61	17,06
879,894	20,57
