Data from Subt4__11__11.txt Node

Date: Fri Jun 07 14:39:09 CEST 2024
User: Naturwissenschaft
Spectrometer: FLMS00572
Trigger mode: 0
Integration Time (sec): 5,000000E-2
Scans to average: 20
Electric dark correction enabled: true
Nonlinearity correction enabled: false
Boxcar width: 5
XAxis mode: Wavelengths
Number of Pixels in Spectrum: 2048
>>>>>Begin Spectral Data<<<<<
190,164	-6,75
190,544	-2,23
190,925	-0,4
191,306	-1,69
191,687	-1,63
192,067	-3,24
192,448	-3,35
192,829	-3,68
193,209	-5,27
193,59	-4,57
193,97	-4,04
194,351	-3,89
194,731	-3,34
195,112	-3,83
195,492	-1,46
195,872	-1,64
196,253	0,52
196,633	2,28
197,013	4,63
197,393	7,64
197,773	8,52
198,154	8,95
198,534	10,72
198,914	8,13
199,294	5,83
199,674	4,7
200,054	5,52
200,434	4,83
200,814	5,97
201,194	3,63
201,573	0,06
201,953	-1,91
202,333	-3,62
202,713	-4,95
203,092	-6,83
203,472	-4,18
203,852	-3,41
204,231	-2,89
204,611	-1,81
204,99	-1,73
205,37	-2,02
205,749	0,72
206,129	2,84
206,508	4,67
206,887	3,75
207,267	2,79
207,646	1,18
208,025	1,15
208,405	0,21
208,784	-0,82
209,163	-1,69
209,542	-0,58
209,921	-1,42
210,3	0,02
210,679	-0,69
211,058	0,35
211,437	5,47
211,816	5,9
212,195	3,97
212,574	5,51
212,952	6,9
213,331	5,63
213,71	5,81
214,089	8,62
214,467	8,19
214,846	9,91
215,225	9,01
215,603	7,37
215,982	7,94
216,36	9,64
216,739	7,3
217,117	5,7
217,495	5,11
217,874	3,49
218,252	0,78
218,63	-0,85
219,009	-1,87
219,387	-2,26
219,765	-2,14
220,143	-2,8
220,521	-2,96
220,899	-2,37
221,277	-3,13
221,655	-2,16
222,033	-1,43
222,411	0,84
222,789	1,88
223,167	3,63
223,545	3,05
223,923	3,05
224,301	1,59
224,678	1,69
225,056	2,38
225,434	2,9
225,811	3,48
226,189	2,19
226,566	-0,02
226,944	0,93
227,321	-2,76
227,699	-0,68
228,076	-1,4
228,454	1,96
228,831	2,99
229,208	2,62
229,586	1,88
229,963	2,21
230,34	4,58
230,717	6,89
231,094	3
231,471	5,51
231,848	5,94
232,225	4,28
232,602	4,27
232,979	3,3
233,356	2,41
233,733	4,16
234,11	2,58
234,487	2,1
234,864	0,23
235,24	3,41
235,617	1,28
235,994	-0,31
236,37	1,03
236,747	-0,15
237,124	0,3
237,5	0,51
237,877	-0,42
238,253	1,93
238,63	3,02
239,006	5,01
239,382	5,65
239,759	7,86
240,135	8,58
240,511	9,91
240,887	10,08
241,264	8,35
241,64	9,03
242,016	10
242,392	6,76
242,768	4,68
243,144	2,67
243,52	-0,03
243,896	-0,11
244,272	0,56
244,648	0,51
245,023	0,82
245,399	2,92
245,775	3,48
246,151	3,6
246,526	4,94
246,902	4,26
247,278	4,39
247,653	5,33
248,029	6,58
248,404	6,51
248,78	7,11
249,155	4,92
249,53	3,65
249,906	4,17
250,281	5,89
250,656	6,51
251,032	7,19
251,407	7,22
251,782	6,66
252,157	4,13
252,532	5,24
252,907	3,26
253,282	1,39
253,657	1,88
254,032	2,44
254,407	1,57
254,782	2,68
255,157	4,16
255,532	3,64
255,907	6,98
256,281	7,55
256,656	6,62
257,031	9,19
257,405	13,35
257,78	13,27
258,155	12,49
258,529	11,5
258,904	9,12
259,278	9,47
259,652	9,86
260,027	8,74
260,401	8,39
260,775	10,23
261,15	8,42
261,524	8,1
261,898	7,21
262,272	5,76
262,646	3,93
263,021	4,82
263,395	4,5
263,769	4,1
264,143	4,28
264,517	3,21
264,89	-0,04
265,264	-1,9
265,638	-0,99
266,012	-0,47
266,386	1,51
266,76	0,97
267,133	1,57
267,507	1,72
267,88	1,94
268,254	-0,19
268,628	0,46
269,001	1,87
269,375	6,63
269,748	6,4
270,121	5,27
270,495	5,26
270,868	6,86
271,241	5,3
271,615	5,54
271,988	7,17
272,361	6,98
272,734	8,82
273,107	10,61
273,48	8,39
273,853	7,23
274,226	9,63
274,599	7,93
274,972	9,38
275,345	10,89
275,718	9,54
276,091	9,07
276,464	11,51
276,836	11,54
277,209	9,15
277,582	7,11
277,954	6,6
278,327	5,13
278,7	6,36
279,072	7,66
279,445	7,94
279,817	8,13
280,189	9,27
280,562	8,79
280,934	6,61
281,306	6,64
281,679	8,57
282,051	11,03
282,423	11,46
282,795	12,74
283,167	12,3
283,539	11,83
283,911	12,67
284,283	10,79
284,655	12,27
285,027	15,57
285,399	14,99
285,771	13,63
286,143	10,33
286,515	8,5
286,886	6,22
287,258	4,48
287,63	3,92
288,001	3,48
288,373	3,62
288,745	1,07
289,116	-1,63
289,488	-1,37
289,859	-2,07
290,23	-2,11
290,602	-1,33
290,973	-3,57
291,344	-2,13
291,716	-1,42
292,087	-0,21
292,458	0,32
292,829	0,2
293,2	2,35
293,571	2,17
293,942	2,64
294,313	3,52
294,684	4,6
295,055	6,19
295,426	8,25
295,797	9,57
296,168	10,54
296,539	10,57
296,909	12,56
297,28	11,2
297,651	10,2
298,021	10,76
298,392	11,49
298,763	9,19
299,133	8,65
299,503	5,14
299,874	2,49
300,244	-0,14
300,615	-2,38
300,985	-4,84
301,355	-2,89
301,726	-0,75
302,096	1,03
302,466	2,76
302,836	4,48
303,206	6,91
303,576	7,32
303,946	7,9
304,316	9,27
304,686	10,66
305,056	12,43
305,426	9,38
305,796	10,08
306,166	6,9
306,535	5,96
306,905	6,34
307,275	5,73
307,644	6,37
308,014	5,73
308,383	4,91
308,753	2,25
309,122	0,5
309,492	1,45
309,861	2,74
310,231	5,63
310,6	6,2
310,969	5,61
311,339	4,67
311,708	2,88
312,077	4,59
312,446	5,5
312,815	8,51
313,184	8,68
313,553	9,03
313,922	8,78
314,291	7,22
314,66	7,5
315,029	9,24
315,398	9,86
315,767	11,49
316,136	9,11
316,504	9,42
316,873	8,68
317,242	7,19
317,61	6,73
317,979	4,68
318,347	2,73
318,716	0,48
319,084	-0,24
319,453	-0,69
319,821	-1,03
320,189	1,26
320,558	1,12
320,926	1,43
321,294	2,66
321,662	1,48
322,031	2,53
322,399	4,76
322,767	6,07
323,135	6,79
323,503	7,81
323,871	7,12
324,239	4,67
324,607	3,69
324,974	5,74
325,342	7,17
325,71	7,7
326,078	7,69
326,445	10,16
326,813	9,63
327,181	7,88
327,548	7,9
327,916	8,61
328,283	8,43
328,651	8,96
329,018	6,15
329,385	5,15
329,753	5,4
330,12	4,54
330,487	1,83
330,855	2,19
331,222	1,9
331,589	1,14
331,956	0,52
332,323	1,59
332,69	1,24
333,057	2,28
333,424	2,48
333,791	5,56
334,158	3,59
334,525	3,32
334,892	2,84
335,258	2,88
335,625	2,48
335,992	2,35
336,358	1,17
336,725	-1,21
337,091	0,65
337,458	0,34
337,824	-1,97
338,191	-1,72
338,557	-0,25
338,924	-0,72
339,29	0,83
339,656	2,04
340,023	1,36
340,389	3,51
340,755	6,08
341,121	4,37
341,487	4,36
341,853	4,81
342,219	7,53
342,585	7,35
342,951	6,83
343,317	6,64
343,683	6,75
344,049	7,53
344,415	6,94
344,78	5,22
345,146	5,85
345,512	6,15
345,877	5,64
346,243	4,2
346,608	5,01
346,974	6,93
347,339	8,15
347,705	8,45
348,07	5,69
348,436	8,09
348,801	9,93
349,166	8,37
349,531	9,65
349,897	9,24
350,262	9,29
350,627	7,34
350,992	6,32
351,357	5,12
351,722	2,01
352,087	4,89
352,452	2,55
352,817	1,53
353,181	2,67
353,546	1,28
353,911	-0,18
354,276	1,18
354,64	2,17
355,005	3,78
355,37	2,83
355,734	6,71
356,099	7
356,463	6,84
356,828	6,27
357,192	5,97
357,556	5,72
357,921	7,43
358,285	5,97
358,649	4,79
359,013	5,47
359,378	6,58
359,742	3,67
360,106	2,76
360,47	4,6
360,834	4,16
361,198	2,92
361,562	2,75
361,926	1,95
362,289	3,98
362,653	4,73
363,017	1,03
363,381	-0,25
363,744	2,33
364,108	3,37
364,472	1,48
364,835	4,1
365,199	5,59
365,562	6,13
365,926	4,89
366,289	3,71
366,652	3,66
367,016	7,27
367,379	6,48
367,742	4,6
368,105	5,85
368,469	6,76
368,832	7,97
369,195	10,38
369,558	8,47
369,921	9,78
370,284	10,28
370,647	10,72
371,01	8,98
371,372	9,22
371,735	9,91
372,098	8,05
372,461	6,26
372,823	4,42
373,186	2,21
373,549	2,96
373,911	3,45
374,274	2,06
374,636	1,3
374,999	0,22
375,361	0,98
375,723	1,89
376,086	3,43
376,448	2,19
376,81	1,4
377,172	0,67
377,535	1,34
377,897	-0,24
378,259	0,36
378,621	1,83
378,983	1,02
379,345	1,61
379,707	1,32
380,068	0,57
380,43	3,08
380,792	3,19
381,154	3,75
381,516	5,18
381,877	6,49
382,239	5,88
382,6	6,02
382,962	6,92
383,323	7,77
383,685	6,52
384,046	5,02
384,408	6,94
384,769	6,53
385,13	6,38
385,492	4,49
385,853	4,49
386,214	4,94
386,575	2,42
386,936	1,32
387,297	-0,08
387,658	1,06
388,019	4,81
388,38	2,79
388,741	2,73
389,102	3,51
389,463	4,74
389,823	6,26
390,184	6,68
390,545	10,14
390,906	10,07
391,266	12,46
391,627	9,7
391,987	8,21
392,348	7,47
392,708	8,29
393,069	7,62
393,429	5,5
393,789	4,6
394,15	5,25
394,51	3,97
394,87	5,9
395,23	5,13
395,59	5,77
395,95	4,79
396,31	5,69
396,67	7,54
397,03	10,24
397,39	13,74
397,75	11,7
398,11	8,99
398,47	6,94
398,829	9,22
399,189	8,76
399,549	11,87
399,908	13,41
400,268	14,32
400,627	11,61
400,987	8,15
401,346	5,88
401,706	11,19
402,065	18,33
402,424	29,48
402,784	57,48
403,143	136,64
403,502	298,89
403,861	490,31
404,221	616,88
404,58	697,14
404,939	742,02
405,298	763,7
405,657	768,36
406,015	766,57
406,374	758,77
406,733	729,93
407,092	650,71
407,451	489,52
407,809	295,69
408,168	167,3
408,527	87,03
408,885	42,94
409,244	22,56
409,602	16,17
409,961	12,29
410,319	12,06
410,678	12,51
411,036	12,56
411,394	10,87
411,752	11,93
412,111	17,59
412,469	20,14
412,827	21,94
413,185	22,04
413,543	22,43
413,901	22,65
414,259	22,03
414,617	22,14
414,975	21,89
415,333	21,02
415,69	18,64
416,048	14,88
416,406	13,58
416,763	13,38
417,121	14,31
417,479	13,35
417,836	14,01
418,194	15,12
418,551	14,74
418,909	14,14
419,266	16,24
419,623	21,44
419,981	21,71
420,338	22,42
420,695	24,23
421,052	24,82
421,409	24,14
421,766	26,24
422,123	24,9
422,48	24,98
422,837	25,43
423,194	24,78
423,551	22,13
423,908	20,75
424,265	22,04
424,621	19,31
424,978	19,66
425,335	21,17
425,691	20,93
426,048	22,85
426,404	23,83
426,761	27,38
427,117	27,85
427,474	29,69
427,83	29,5
428,186	30,05
428,543	32,36
428,899	33,5
429,255	34,03
429,611	35,77
429,967	36,18
430,323	35,48
430,679	33,35
431,035	33,84
431,391	35,53
431,747	40,23
432,103	39,9
432,459	40,67
432,815	40,39
433,17	42
433,526	40,15
433,882	40,55
434,237	41,91
434,593	43,28
434,948	43,3
435,304	42,69
435,659	42,21
436,014	42,01
436,37	43,49
436,725	41,62
437,08	40,8
437,436	41,47
437,791	41,19
438,146	37,6
438,501	35,03
438,856	35,72
439,211	35,35
439,566	34,48
439,921	35,47
440,276	33,92
440,63	35,65
440,985	36,07
441,34	36,04
441,695	35,13
442,049	36,56
442,404	39,17
442,758	37,67
443,113	38,64
443,467	40,28
443,822	38,76
444,176	37,32
444,531	39,21
444,885	37,45
445,239	37,04
445,593	38,56
445,948	41,37
446,302	42,34
446,656	44,78
447,01	46,01
447,364	44,15
447,718	44,58
448,072	45,79
448,426	46,01
448,779	49,25
449,133	51,4
449,487	50,14
449,841	49,53
450,194	48,07
450,548	48,26
450,902	49,32
451,255	51,25
451,609	53,48
451,962	54,91
452,315	53,63
452,669	54,03
453,022	53,09
453,375	52,75
453,729	51,02
454,082	55,02
454,435	55,03
454,788	53,11
455,141	53,47
455,494	53,31
455,847	52,89
456,2	54,19
456,553	52,59
456,906	52,99
457,258	54,51
457,611	56,96
457,964	54,39
458,316	54,91
458,669	57,29
459,022	55,25
459,374	54,45
459,727	54,84
460,079	52,41
460,432	51,92
460,784	51,49
461,136	52,85
461,488	53,1
461,841	52,77
462,193	54,84
462,545	54,17
462,897	57,34
463,249	59,78
463,601	60,84
463,953	64,12
464,305	67,53
464,657	68,35
465,009	66,43
465,361	67,12
465,712	68,77
466,064	66,9
466,416	66,07
466,767	64,76
467,119	62,82
467,47	62,58
467,822	61,19
468,173	59,9
468,525	61,65
468,876	63,37
469,227	65,61
469,579	67,92
469,93	67,58
470,281	66,52
470,632	68,91
470,983	70,8
471,334	69,49
471,685	70
472,036	69,94
472,387	70,51
472,738	72,08
473,089	68,99
473,44	65,54
473,79	67,36
474,141	67,9
474,492	66,65
474,842	67,41
475,193	71,38
475,543	72,46
475,894	72,61
476,244	74,21
476,595	72,99
476,945	75,11
477,295	78,33
477,645	76,2
477,996	81,89
478,346	82,46
478,696	84,25
479,046	82,69
479,396	85,25
479,746	87,82
480,096	85,54
480,446	87,01
480,796	90,58
481,145	93,55
481,495	97,02
481,845	96,17
482,195	96,88
482,544	97,61
482,894	99,78
483,243	98,12
483,593	99,09
483,942	102,45
484,292	103,64
484,641	103,28
484,99	103,58
485,34	106,15
485,689	104,02
486,038	109,93
486,387	111,8
486,736	113,85
487,085	118,99
487,434	123,83
487,783	126,7
488,132	133,24
488,481	137,91
488,83	141,44
489,179	144,71
489,527	154,43
489,876	157,66
490,225	164,2
490,573	170,38
490,922	177,54
491,27	184,23
491,619	191,18
491,967	199,51
492,316	209,93
492,664	221,23
493,012	232,14
493,361	240,57
493,709	250,69
494,057	262,38
494,405	274,11
494,753	287,86
495,101	302,38
495,449	318,51
495,797	335,27
496,145	353,51
496,493	372,89
496,84	394,13
497,188	419,02
497,536	447,65
497,884	475,09
498,231	507,55
498,579	540,54
498,926	575,22
499,274	616,17
499,621	655,58
499,969	697,83
500,316	749,11
500,663	804,18
501,01	861,23
501,358	921,59
501,705	987,69
502,052	1059,06
502,399	1137,03
502,746	1219,98
503,093	1306,38
503,44	1403,03
503,787	1506,9
504,134	1614,29
504,481	1729,32
504,827	1856,31
505,174	1989
505,521	2132,69
505,867	2285,13
506,214	2448,78
506,56	2627,42
506,907	2811,79
507,253	3007,67
507,6	3214,58
507,946	3431,49
508,292	3658,94
508,639	3897,25
508,985	4152,27
509,331	4420,09
509,677	4702,18
510,023	4989,54
510,369	5285,85
510,715	5601,54
511,061	5923,84
511,407	6258,06
511,753	6603,29
512,099	6962,22
512,444	7328,6
512,79	7706,2
513,136	8084,54
513,481	8464,39
513,827	8855,59
514,172	9246,35
514,518	9642,65
514,863	10039,95
515,209	10424,86
515,554	10808,6
515,899	11182,39
516,245	11544,88
516,59	11879,72
516,935	12213,28
517,28	12520,58
517,625	12807,47
517,97	13078,04
518,315	13303,79
518,66	13511,5
519,005	13702,24
519,35	13855,15
519,695	13980,93
520,039	14073,94
520,384	14143,16
520,729	14171,5
521,073	14188,7
521,418	14175,7
521,762	14122,87
522,107	14060,79
522,451	13966,56
522,796	13842,2
523,14	13703,04
523,484	13542,94
523,829	13371,53
524,173	13185,12
524,517	12988,62
524,861	12771,82
525,205	12546,53
525,549	12319,11
525,893	12085,86
526,237	11850,16
526,581	11615,26
526,925	11382,7
527,269	11150,98
527,612	10918,71
527,956	10687,23
528,3	10460,81
528,643	10235,44
528,987	10017,33
529,33	9810,15
529,674	9603,7
530,017	9396,97
530,36	9206,83
530,704	9013,38
531,047	8831,82
531,39	8653,6
531,733	8486,6
532,077	8315,23
532,42	8158,94
532,763	8003,38
533,106	7853,22
533,449	7709,22
533,792	7578,25
534,134	7441,05
534,477	7306,24
534,82	7181,13
535,163	7055,62
535,505	6935,62
535,848	6828,48
536,191	6723,36
536,533	6620,98
536,876	6516,9
537,218	6412,57
537,56	6312,62
537,903	6217,13
538,245	6131,76
538,587	6038,58
538,93	5953,84
539,272	5866,96
539,614	5782,07
539,956	5696
540,298	5613,97
540,64	5537,86
540,982	5472,39
541,324	5399,52
541,666	5333,13
542,007	5265,86
542,349	5200,69
542,691	5142,83
543,032	5086,38
543,374	5028,71
543,716	4978,33
544,057	4929,74
544,398	4883,45
544,74	4832,11
545,081	4791,15
545,423	4745,8
545,764	4704,44
546,105	4665,62
546,446	4628,4
546,787	4595,47
547,128	4565,77
547,469	4533,27
547,81	4504,58
548,151	4477,49
548,492	4457,23
548,833	4434,19
549,174	4417,36
549,515	4397,05
549,855	4381,93
550,196	4363,2
550,537	4348,17
550,877	4332,46
551,218	4316,79
551,558	4299,5
551,899	4281,8
552,239	4263,76
552,579	4244,68
552,92	4224,38
553,26	4208,12
553,6	4186,72
553,94	4166,23
554,28	4143,35
554,62	4120,59
554,96	4099,83
555,3	4077,89
555,64	4054,3
555,98	4028,35
556,32	4006,51
556,66	3978,75
556,999	3950,14
557,339	3921,32
557,679	3893,14
558,018	3864,01
558,358	3833,33
558,697	3800,96
559,037	3768,8
559,376	3736,58
559,715	3706,38
560,055	3670,99
560,394	3638,54
560,733	3608,52
561,072	3572,74
561,411	3537,2
561,75	3504,63
562,089	3473,07
562,428	3440,92
562,767	3408,82
563,106	3373,91
563,445	3341,17
563,784	3309,87
564,122	3279,8
564,461	3251,41
564,8	3225,19
565,138	3200,04
565,477	3171,29
565,815	3146,35
566,154	3117,69
566,492	3092,49
566,83	3073,22
567,169	3046,82
567,507	3028,89
567,845	3012,96
568,183	2994,31
568,521	2979,56
568,859	2965,28
569,197	2953,27
569,535	2939,3
569,873	2933,11
570,211	2923,7
570,549	2917,43
570,887	2917,33
571,224	2906,63
571,562	2901,66
571,9	2900,35
572,237	2899,11
572,575	2897,25
572,912	2899,05
573,25	2902,56
573,587	2904,68
573,924	2908,85
574,262	2910,25
574,599	2913,79
574,936	2921,81
575,273	2926,7
575,61	2931,15
575,947	2935,34
576,284	2940,61
576,621	2943,74
576,958	2948,95
577,295	2951,13
577,632	2955,96
577,969	2959,62
578,305	2961,74
578,642	2960,85
578,979	2960,53
579,315	2957,12
579,652	2952,16
579,988	2948,58
580,325	2945,32
580,661	2936,8
580,997	2927,04
581,334	2912,34
581,67	2898,69
582,006	2879,41
582,342	2864,4
582,678	2839,22
583,014	2819,05
583,35	2799,56
583,686	2774,44
584,022	2744,94
584,358	2717,17
584,694	2690,19
585,029	2661,56
585,365	2630,52
585,701	2598,92
586,036	2563,09
586,372	2535,98
586,707	2498,18
587,043	2456,38
587,378	2418,54
587,714	2381,45
588,049	2342,17
588,384	2301,93
588,719	2262,37
589,054	2222,59
589,39	2184,29
589,725	2146,16
590,06	2104,84
590,395	2068,03
590,729	2036,36
591,064	2000,01
591,399	1963,4
591,734	1925,71
592,069	1888,51
592,403	1853,35
592,738	1819,46
593,073	1784,68
593,407	1754,17
593,742	1721,57
594,076	1690,31
594,41	1658,92
594,745	1627,84
595,079	1595,99
595,413	1568,21
595,747	1542,27
596,081	1517,11
596,416	1487,61
596,75	1461,75
597,084	1433,95
597,418	1408,32
597,751	1381,73
598,085	1356,75
598,419	1334,8
598,753	1313,82
599,086	1292,09
599,42	1268,44
599,754	1245,95
600,087	1227,33
600,421	1206,36
600,754	1187,68
601,088	1169,52
601,421	1153,13
601,754	1134,58
602,088	1115,35
602,421	1097,62
602,754	1082,52
603,087	1068,95
603,42	1051,18
603,753	1035,88
604,086	1023,01
604,419	1009,15
604,752	995,46
605,085	981,16
605,417	967,26
605,75	953,72
606,083	941,88
606,415	927,34
606,748	914,09
607,08	903,5
607,413	891,06
607,745	878,69
608,078	868,41
608,41	855,45
608,742	846,19
609,074	836,79
609,407	827,04
609,739	817,81
610,071	807,79
610,403	798,98
610,735	788,83
611,067	779,75
611,399	771,04
611,73	759,89
612,062	751,73
612,394	742,83
612,726	735,57
613,057	728,29
613,389	719,36
613,72	714,82
614,052	705,79
614,383	700,68
614,715	694,79
615,046	687,64
615,377	683,72
615,708	676,99
616,04	670,31
616,371	665,79
616,702	660,33
617,033	656,52
617,364	650,19
617,695	646,59
618,026	640,31
618,356	636,46
618,687	636,82
619,018	631,09
619,349	632,13
619,679	628,15
620,01	623,64
620,34	621,31
620,671	618,58
621,001	613,59
621,332	611,14
621,662	608,78
621,992	603,6
622,322	596,05
622,653	592,75
622,983	586,88
623,313	585,13
623,643	580,69
623,973	577,72
624,303	575,89
624,633	575,36
624,962	571,34
625,292	569,44
625,622	567,9
625,952	564,44
626,281	562,26
626,611	560,32
626,94	557,9
627,27	553,48
627,599	547,89
627,929	539,97
628,258	535,9
628,587	532,51
628,916	529,11
629,246	526,27
629,575	525,27
629,904	519,02
630,233	512,05
630,562	509,72
630,891	506,9
631,22	505,52
631,548	503,9
631,877	499,51
632,206	500,64
632,535	495,65
632,863	493,68
633,192	491,5
633,52	490,6
633,849	487,93
634,177	482,04
634,506	480,58
634,834	475,92
635,162	472,42
635,49	470,73
635,819	461,88
636,147	458,08
636,475	451,78
636,803	447,43
637,131	443,2
637,459	440,46
637,787	436,75
638,114	431,54
638,442	427,42
638,77	424,71
639,098	417,99
639,425	417,19
639,753	412,23
640,08	409,79
640,408	403,74
640,735	400,38
641,062	395,96
641,39	391,2
641,717	386,35
642,044	382,09
642,371	376,53
642,699	372,46
643,026	365,37
643,353	361,8
643,68	355,2
644,006	348,73
644,333	341,83
644,66	336,68
644,987	331,16
645,314	324,97
645,64	316,18
645,967	311,25
646,293	305,28
646,62	301,26
646,946	293,24
647,273	287
647,599	281,7
647,925	278,27
648,252	271,81
648,578	266,71
648,904	263,33
649,23	260,34
649,556	253,65
649,882	249,2
650,208	244,41
650,534	240,99
650,86	237,34
651,185	232,03
651,511	225,78
651,837	221,64
652,162	220,44
652,488	217,02
652,814	211,48
653,139	206,81
653,464	205,29
653,79	201,81
654,115	196,87
654,44	193,31
654,766	191,28
655,091	188,43
655,416	184,22
655,741	176,74
656,066	172,44
656,391	173,84
656,716	171,98
657,041	167,67
657,366	162,51
657,69	162,55
658,015	161,25
658,34	159,93
658,664	160,08
658,989	160,47
659,313	160,56
659,638	159,07
659,962	156,15
660,286	153,96
660,611	150,43
660,935	147,8
661,259	144,06
661,583	140,03
661,907	136,42
662,231	131,63
662,555	129,88
662,879	126,5
663,203	123,78
663,527	121,65
663,851	121,59
664,175	120,56
664,498	120,84
664,822	118,77
665,145	119,2
665,469	118,6
665,792	117,54
666,116	112,62
666,439	110,38
666,763	106,52
667,086	104,59
667,409	101,13
667,732	98,45
668,055	96,15
668,378	97,66
668,701	94,45
669,024	93,15
669,347	91,04
669,67	90,62
669,993	89,73
670,316	89,59
670,638	87,12
670,961	85,12
671,283	86,23
671,606	85,87
671,928	82,08
672,251	80,31
672,573	78,74
672,896	78,39
673,218	78,89
673,54	79,4
673,862	78,76
674,184	79,66
674,506	79,34
674,828	77,14
675,15	75,45
675,472	74,85
675,794	74,94
676,116	73,41
676,438	71,74
676,759	71,39
677,081	71,27
677,403	72,44
677,724	70,68
678,046	70,94
678,367	70,65
678,689	68,61
679,01	68,97
679,331	67,64
679,652	68,98
679,974	68,5
680,295	65,52
680,616	61,83
680,937	61,81
681,258	61,5
681,579	60,24
681,9	58,51
682,22	59,52
682,541	58,62
682,862	54,77
683,183	54,73
683,503	54,68
683,824	54,8
684,144	56,78
684,465	55,72
684,785	54,05
685,105	52,89
685,426	52,47
685,746	53,79
686,066	55,02
686,386	59,21
686,706	56,76
687,026	56,27
687,346	57,39
687,666	55,67
687,986	56,94
688,306	60,1
688,626	61,45
688,945	62,88
689,265	61,13
689,585	60,12
689,904	57,71
690,224	57,88
690,543	56,96
690,862	55,29
691,182	52,7
691,501	49,12
691,82	46,65
692,139	43,85
692,459	41,15
692,778	41
693,097	38,6
693,416	38,8
693,735	40,91
694,053	39,77
694,372	40,7
694,691	42,91
695,01	43,59
695,328	43,99
695,647	43,82
695,966	46,45
696,284	43,62
696,602	44,03
696,921	44,64
697,239	39,86
697,557	40,87
697,876	36,19
698,194	35,18
698,512	34,5
698,83	32,03
699,148	32,16
699,466	31,78
699,784	32,08
700,102	31,08
700,42	31,34
700,737	31,53
701,055	30,65
701,373	34,38
701,69	35,01
702,008	30,08
702,325	30,1
702,643	29,93
702,96	27,48
703,277	27,4
703,595	26,27
703,912	25,53
704,229	24,2
704,546	25,81
704,863	23,7
705,18	22,15
705,497	26,23
705,814	25,83
706,131	24,12
706,448	24,99
706,764	26,67
707,081	28,29
707,398	28,23
707,714	30,12
708,031	26,58
708,347	26,93
708,664	26,82
708,98	25,64
709,296	25,69
709,613	28,11
709,929	25,96
710,245	25,01
710,561	22,53
710,877	20,44
711,193	18,73
711,509	20,32
711,825	18,82
712,141	19,05
712,457	16,95
712,772	15,72
713,088	13,86
713,403	13,46
713,719	11,76
714,035	13,17
714,35	12,69
714,665	13,41
714,981	12,68
715,296	11,76
715,611	12,17
715,926	14,95
716,242	14,8
716,557	17,73
716,872	22,28
717,187	22,12
717,502	20,06
717,816	19,97
718,131	20,51
718,446	21,65
718,761	24,66
719,075	23,98
719,39	23,72
719,704	22,61
720,019	19,3
720,333	14,96
720,648	16,43
720,962	17,43
721,276	16,7
721,59	14,77
721,905	12,96
722,219	11,17
722,533	9,78
722,847	7,9
723,161	8,82
723,475	8,34
723,788	8,8
724,102	6,27
724,416	6,7
724,73	9,37
725,043	11,28
725,357	10,35
725,67	9,26
725,984	10,86
726,297	11,85
726,61	11,65
726,924	11,65
727,237	11,83
727,55	12,93
727,863	12,15
728,176	11,67
728,489	11,25
728,802	13,21
729,115	14,65
729,428	14,51
729,741	13,78
730,054	14,16
730,366	14,32
730,679	14,21
730,992	14,13
731,304	16,01
731,617	14,46
731,929	13,88
732,241	11,4
732,554	11,52
732,866	8,98
733,178	9,53
733,49	9,19
733,802	10,5
734,114	9,73
734,426	9,33
734,738	8,11
735,05	8,65
735,362	7,3
735,674	9,44
735,985	7,41
736,297	9,3
736,609	8,76
736,92	9,59
737,232	6,87
737,543	5,9
737,854	7,04
738,166	6,08
738,477	5,18
738,788	5,09
739,099	3,75
739,411	4,89
739,722	4,35
740,033	5,77
740,344	2,66
740,654	2,96
740,965	5,41
741,276	2,48
741,587	2,28
741,897	4,06
742,208	3,05
742,519	-3,92
742,829	-4,3
743,14	-3,98
743,45	-5,43
743,76	-6,1
744,071	-7,33
744,381	-7,12
744,691	-4,03
745,001	-3,29
745,311	-5,07
745,621	-1,93
745,931	3,54
746,241	4,37
746,551	4,45
746,861	2,88
747,17	5,69
747,48	8,23
747,79	8,07
748,099	7,83
748,409	6,61
748,718	8,72
749,027	8,18
749,337	9,14
749,646	6,42
749,955	5,55
750,265	7,47
750,574	6,3
750,883	6,37
751,192	6,94
751,501	6,27
751,81	7,15
752,118	3,85
752,427	1,15
752,736	1,45
753,045	4,97
753,353	6,18
753,662	6,95
753,97	6,77
754,279	4,82
754,587	3,07
754,896	2,32
755,204	2,2
755,512	2,39
755,82	4,8
756,128	4,8
756,436	4,17
756,744	4,17
757,052	3,43
757,36	3,9
757,668	6,66
757,976	6,86
758,284	5,57
758,591	5,86
758,899	7,17
759,207	6,25
759,514	6,68
759,821	3,74
760,129	1,35
760,436	1,56
760,744	1,5
761,051	1,03
761,358	0,62
761,665	0,04
761,972	-0,11
762,279	0,43
762,586	-0,16
762,893	0,18
763,2	3,7
763,507	5,62
763,813	5,23
764,12	5
764,427	4,83
764,733	4,18
765,04	6,95
765,346	6,98
765,653	5,74
765,959	7,32
766,265	4,7
766,571	4,87
766,878	2,01
767,184	1,43
767,49	3,52
767,796	1,67
768,102	3,06
768,408	0,44
768,713	0,45
769,019	-0,08
769,325	-1,27
769,631	-0,4
769,936	-4,35
770,242	-2,14
770,547	-1,63
770,853	-0,62
771,158	-0,98
771,463	-2,13
771,769	-0,28
772,074	-0,58
772,379	1,38
772,684	0,14
772,989	-0,12
773,294	1,8
773,599	-1,07
773,904	-2,89
774,209	-5,21
774,514	-4,34
774,818	-4,05
775,123	-3,06
775,428	-3,35
775,732	-5,23
776,037	-4,34
776,341	-1,95
776,645	-2,08
776,95	-0,34
777,254	1,7
777,558	3,53
777,862	2,64
778,166	1,25
778,47	0,17
778,774	2,25
779,078	4,1
779,382	4,35
779,686	4,92
779,99	5,8
780,293	5,65
780,597	5,15
780,901	5,11
781,204	5,5
781,508	7,4
781,811	6,45
782,114	4,16
782,418	3,39
782,721	4,59
783,024	4,31
783,327	1,36
783,63	3,33
783,933	3,3
784,236	1,34
784,539	2,8
784,842	0,45
785,145	3,17
785,447	5,13
785,75	4,42
786,053	3,41
786,355	1,94
786,658	5,19
786,96	4,41
787,263	2,86
787,565	3,96
787,867	4,1
788,169	6,42
788,472	3,49
788,774	2
789,076	1,39
789,378	3,5
789,68	6,64
789,982	6,33
790,283	6,36
790,585	7,61
790,887	6,18
791,188	3,69
791,49	1,81
791,792	1,37
792,093	2,48
792,394	2,89
792,696	0,82
792,997	-3,34
793,298	-3,08
793,6	-1
793,901	-2,08
794,202	-0,72
794,503	0,77
794,804	2,55
795,105	4,6
795,405	4,03
795,706	5,05
796,007	4,8
796,308	4,29
796,608	2,49
796,909	-1,16
797,209	-0,55
797,51	-1,19
797,81	-3,02
798,11	-4,68
798,411	-4,04
798,711	-4,64
799,011	-4,72
799,311	-3,77
799,611	-0,09
799,911	-0,69
800,211	0,43
800,511	1,55
800,811	3,4
801,111	6,12
801,41	6,16
801,71	3,73
802,009	4,38
802,309	5,24
802,608	3,91
802,908	1,63
803,207	4,81
803,507	5,34
803,806	4,56
804,105	4,02
804,404	2,86
804,703	4,59
805,002	7,59
805,301	7,71
805,6	8,05
805,899	7,83
806,198	7,71
806,496	8,33
806,795	9,01
807,094	9,11
807,392	6,54
807,691	7,64
807,989	6,47
808,287	6,73
808,586	6,42
808,884	3,9
809,182	6,22
809,48	6,06
809,778	4,25
810,076	5,87
810,374	3,85
810,672	2,87
810,97	3,9
811,268	3,34
811,566	-0,57
811,863	-0,93
812,161	-0,09
812,458	-0,4
812,756	-0,46
813,053	-1
813,351	-4,95
813,648	-3,3
813,945	-0,9
814,242	-3,1
814,54	-2,38
814,837	-1,75
815,134	0,71
815,431	1,93
815,728	0,62
816,025	1,16
816,321	0,57
816,618	0,97
816,915	-0,09
817,211	-1,25
817,508	-0,34
817,804	-1,76
818,101	-1,81
818,397	-4,64
818,694	-5,35
818,99	-4,19
819,286	-3,35
819,582	-3,14
819,878	-3,72
820,174	-2,08
820,47	-0,28
820,766	0,77
821,062	2,57
821,358	3,72
821,654	3,45
821,949	6,72
822,245	3,92
822,541	4,54
822,836	5,88
823,132	7,61
823,427	5,48
823,722	3,15
824,018	2,95
824,313	1,74
824,608	1,93
824,903	3,86
825,198	-1,07
825,493	-0,62
825,788	-2,35
826,083	-1,9
826,378	-4,09
826,672	-2,04
826,967	-1,63
827,262	-2,79
827,556	-1,46
827,851	-3,15
828,145	-4,49
828,44	-4,68
828,734	-3,46
829,028	-5,27
829,323	-6,49
829,617	-3,83
829,911	-1,41
830,205	-1,06
830,499	-0,01
830,793	-0,56
831,087	0,35
831,381	0,41
831,674	5,22
831,968	7,23
832,262	10,16
832,555	9,06
832,849	10,14
833,142	6,97
833,436	7,55
833,729	6
834,022	5,7
834,315	7,35
834,609	6,53
834,902	4,02
835,195	2,38
835,488	2,48
835,781	2,27
836,074	0,5
836,366	0,27
836,659	0,6
836,952	0,6
837,244	1,95
837,537	0,31
837,829	1,39
838,122	1,7
838,414	2,26
838,707	3
838,999	4,52
839,291	6,18
839,583	6,79
839,875	5,64
840,167	7,21
840,459	3,34
840,751	3,4
841,043	3,02
841,335	1,07
841,627	-0,26
841,918	-2,13
842,21	-1,92
842,502	-3,32
842,793	-2,57
843,085	-1,43
843,376	-1,67
843,667	3,43
843,959	3,73
844,25	3,24
844,541	3,54
844,832	3,19
845,123	3,11
845,414	3,58
845,705	1,56
845,996	1,78
846,287	-0,45
846,577	-1,09
846,868	-4,32
847,159	-4,62
847,449	-3,01
847,74	-2,14
848,03	-0,42
848,32	-1,33
848,611	-3,39
848,901	-2,66
849,191	-3,35
849,481	-1,37
849,771	0,27
850,061	1,24
850,351	2,3
850,641	2,17
850,931	1,61
851,221	0,17
851,511	1,5
851,8	2,95
852,09	2,3
852,379	2,75
852,669	1,95
852,958	0,22
853,248	0,01
853,537	-0,48
853,826	-0,64
854,115	0,71
854,404	1,6
854,693	3,42
854,982	1,82
855,271	1,64
855,56	1,25
855,849	2,2
856,138	3,59
856,427	2,85
856,715	3,58
857,004	3,48
857,292	2,67
857,581	1,84
857,869	-0,03
858,157	0,03
858,446	2,15
858,734	1,67
859,022	1,81
859,31	0,68
859,598	1,43
859,886	1,6
860,174	-0,2
860,462	0,14
860,75	0,25
861,037	-0,44
861,325	0,45
861,613	0,57
861,9	2
862,188	1,92
862,475	4,24
862,763	4,73
863,05	3,17
863,337	3,22
863,624	2,69
863,911	3,56
864,199	2,52
864,486	3,06
864,772	2,83
865,059	3,93
865,346	4,73
865,633	3,5
865,92	2,02
866,206	3,28
866,493	5,23
866,779	6,08
867,066	5,47
867,352	7,83
867,639	8,08
867,925	8,88
868,211	7,91
868,497	7,36
868,783	5,32
869,069	6,42
869,355	6,43
869,641	5,63
869,927	5,37
870,213	7,59
870,499	5,03
870,784	3,76
871,07	2,92
871,356	2,41
871,641	2,27
871,926	2,97
872,212	2,92
872,497	0,71
872,782	2,02
873,068	1,37
873,353	-0,87
873,638	0,29
873,923	1,78
874,208	2,57
874,493	1,58
874,777	0,76
875,062	0,08
875,347	1,14
875,632	2,91
875,916	2,89
876,201	1,91
876,485	2,68
876,77	3,58
877,054	4,59
877,338	3,43
877,622	4,37
877,906	6,68
878,191	9,44
878,475	10,65
878,759	11,16
879,042	10,82
879,326	13,58
879,61	14,41
879,894	16,14
